Label,Condition,Time,EEG 001,EEG 002,EEG 003,EEG 005,EEG 006,EEG 010,EEG 011,EEG 012,EEG 013,EEG 014
0,audio/right,-0.09989760657919393,-3.174850111461749e-07,-2.1590752586929484e-06,-4.505758191537745e-06,-8.181805335518297e-06,-2.9007606539022575e-06,2.863898558265293e-07,-1.4162885619575803e-06,-2.2914342073988923e-07,-5.600490663672668e-07,1.3507014893663918e-06
0,audio/right,-0.09323093991252726,2.9672473285517444e-06,-1.643828870383773e-06,-4.087735242502443e-06,-2.276976192009554e-06,-6.246088662208267e-06,5.472731765412902e-06,2.2157733543745124e-06,2.61387112446856e-06,1.579673235524575e-06,2.6190438124293787e-06
0,audio/right,-0.08656427324586059,3.266105118760308e-07,-2.8983535523510233e-06,-2.5070355022894093e-06,4.113415981683293e-06,-6.631461235681618e-06,6.952414676572301e-06,4.382199249354124e-06,4.061561116466449e-06,3.2637665394736374e-06,1.7665205173120795e-06
0,audio/right,-0.07989760657919392,-4.1557148703966755e-06,-5.5846512674976806e-06,-4.7676007139803045e-06,9.584051241066486e-07,-3.3141825512593876e-06,3.1707484122050606e-06,2.114948048384304e-06,1.7742486959295365e-06,2.008979107739759e-06,-6.035568686651202e-08
0,audio/right,-0.07323093991252726,-9.080609132558719e-06,-8.656394248608425e-06,-1.0366172565498265e-05,-7.055075855565726e-06,3.080831138394915e-07,-3.7969446864954996e-07,-1.4876131952239818e-06,-1.4925528357410768e-06,-6.605624932314933e-07,-7.069841634241971e-07
0,audio/right,-0.06656427324586059,-1.2532750308230607e-05,-1.0258894804416481e-05,-1.2616361790064625e-05,-9.778613384439534e-06,-4.313601094663914e-07,1.989865179384649e-07,-2.766242363488428e-06,-2.98373500751451e-06,-2.3968065748874157e-06,-1.354183104631229e-06
0,audio/right,-0.05989760657919393,-1.0463796851451917e-05,-8.550399910292664e-06,-8.088818249635438e-06,-5.661660912620178e-06,-4.230303729674597e-06,1.5440027744648039e-06,-2.5994374028135684e-06,-3.5210250697423236e-06,-3.059596393219436e-06,-3.45023761991478e-06
0,audio/right,-0.05323093991252726,-5.567841811043432e-06,-5.4242760959929616e-06,-2.1746066900433772e-06,-1.4523531537919975e-06,-5.273763915674993e-06,-1.2344561358158016e-07,-2.9281318350849815e-06,-3.943268501125909e-06,-3.071897202785667e-06,-4.47290742347054e-06
0,audio/right,-0.04656427324586059,-3.862955003210473e-06,-3.3415750617710147e-06,-5.164246496738704e-07,1.9448434083160334e-08,-1.6524069341543082e-06,-2.4561741565454076e-06,-2.7948894207379523e-06,-2.9624335921741344e-06,-1.9399572488788102e-06,-2.0901021593789393e-06
0,audio/right,-0.03989760657919393,-5.686883839195767e-06,-3.189617227699632e-06,-2.617216267116962e-06,1.7946534411623262e-07,1.5061966144406035e-06,-2.430122496785335e-06,-1.3787781605934095e-06,-5.777446081205621e-07,-1.0782635603347352e-07,1.1140925453000462e-06
0,audio/right,-0.03323093991252726,-4.9672881660801e-06,-2.945543618725106e-06,-3.3300201247329753e-06,3.860226871971952e-07,5.929173050464397e-07,-1.8131012412020201e-06,-5.365305905150554e-07,2.804512821883694e-07,2.9158533227046253e-07,1.167744999637488e-06
0,audio/right,-0.026564273245860595,-4.434400224809777e-07,-9.947329480011774e-07,8.5412830677598e-08,3.439180292962907e-07,-1.7542136856896492e-06,-3.2772120273632317e-06,-1.3943012318692123e-06,-1.56276190244644e-06,-1.444815492262465e-06,-1.1552894768253797e-06
0,audio/right,-0.019897606579193927,4.9748070290454494e-06,3.666966368428654e-06,5.929303985176753e-06,1.800115268917616e-06,-9.457584391573669e-07,-5.236840047409661e-06,-1.7708157795590742e-06,-2.8423551246708903e-06,-2.729462137026137e-06,-2.006885825050904e-06
0,audio/right,-0.01323093991252726,9.84574218938042e-06,9.87083203592093e-06,1.0393368394910403e-05,5.230205621163771e-06,3.5712494936944375e-06,-4.62752851092775e-06,2.5007883219572456e-07,-3.968621961655069e-07,-9.32914838890494e-07,3.9150613232861087e-08
0,audio/right,-0.006564273245860591,1.5934778890824356e-05,1.687484087234858e-05,1.470968104502507e-05,9.071508214231591e-06,1.0105229198349431e-05,-9.68923054047268e-07,3.5515449083232554e-06,4.1690336914259675e-06,3.0477400151716754e-06,2.811138811306474e-06
0,audio/right,0.00010239342080607672,2.3029579066116864e-05,2.5234703587734694e-05,2.4459983731285617e-05,1.2303980129149497e-05,1.7296624191498464e-05,3.687767614091743e-06,6.5584841492113245e-06,7.612716347962355e-06,6.712143573402537e-06,4.428552670977773e-06
0,audio/right,0.006769060087472745,3.169970407685435e-05,3.708553661797049e-05,4.095738525958604e-05,1.7903761415152694e-05,2.4700042264973687e-05,7.116276533996529e-06,9.77808874767735e-06,1.0266529674630268e-05,1.0133970443880116e-05,6.020829150524977e-06
0,audio/right,0.013435726754139399,4.3174445445620694e-05,5.1187836926265835e-05,5.6133716082692396e-05,2.6397705342404494e-05,3.162907164520545e-05,8.669480966779214e-06,1.3872660184731657e-05,1.481237611048865e-05,1.5397159184107412e-05,1.0613590409881224e-05
0,audio/right,0.020102393420806067,5.6322127734750966e-05,6.402755907773347e-05,6.439313196028027e-05,3.357258461254515e-05,3.817236705335299e-05,1.0745923052037135e-05,1.795474609549136e-05,2.0798741593429243e-05,2.2069231576321445e-05,1.8460820223603226e-05
0,audio/right,0.02676906008747275,6.52894883041902e-05,7.278288791637299e-05,7.057419465517957e-05,3.534148671184663e-05,4.4303267574980225e-05,1.593962289350312e-05,2.089372719106806e-05,2.4378037539770106e-05,2.6281143010081053e-05,2.451023683750887e-05
0,audio/right,0.0334357267541394,6.736340226061635e-05,7.793231407018778e-05,8.039639193023086e-05,3.4939026394819136e-05,4.908920744726773e-05,2.2123350100496975e-05,2.254931578322336e-05,2.359396009687056e-05,2.545699612331925e-05,2.3022554157633204e-05
0,audio/right,0.040102393420806084,6.485911195979697e-05,7.914734673191586e-05,8.808133127184714e-05,3.688701163088842e-05,5.0707682693403166e-05,2.3999340272385554e-05,2.2990608896532013e-05,2.1211905537940372e-05,2.1917861364825106e-05,1.5789178363239516e-05
0,audio/right,0.04676906008747274,6.234840591605441e-05,7.617469152698679e-05,8.592401339995793e-05,4.029278188806987e-05,4.923284457817394e-05,2.1483549079776368e-05,2.2354139520968675e-05,2.0672033359972738e-05,1.9951410172082496e-05,1.1027418672197786e-05
0,audio/right,0.05343572675413939,6.189399531254091e-05,7.008643034266812e-05,7.635629068313677e-05,3.960349940302404e-05,4.615080901442461e-05,1.9984807186220517e-05,2.0945523940713295e-05,2.129996454339779e-05,2.030945083703058e-05,1.259209155324608e-05
0,audio/right,0.060102393420806074,6.339270276887172e-05,6.351593109868987e-05,6.665592788841135e-05,3.390858260317003e-05,4.179780818432525e-05,2.0700981567032852e-05,1.8160429462380194e-05,1.9169399459980602e-05,1.9422132259969332e-05,1.4740275596307319e-05
0,audio/right,0.06676906008747273,6.139710223040167e-05,5.62969538462725e-05,5.703685429156804e-05,2.6823182415256237e-05,3.405479731511356e-05,1.7625849116689936e-05,1.2475755651013842e-05,1.2480519815374398e-05,1.416618320492829e-05,1.1132125365474132e-05
0,audio/right,0.07343572675413941,5.0121531530785996e-05,4.793728142491157e-05,4.624543593400518e-05,2.1098146836977592e-05,2.333262425770697e-05,8.486864529683532e-06,4.591297794829554e-06,3.991674048348336e-06,5.89712452181629e-06,3.496101832340983e-06
0,audio/right,0.08010239342080606,3.231615994568066e-05,3.918046015305545e-05,3.7965178899650526e-05,1.4473452907056275e-05,1.4567563019014692e-05,2.2231702599071854e-07,-1.7679083987853978e-06,-2.3496539579336902e-06,-1.185915811421663e-06,-2.467717273717567e-06
0,audio/right,0.08676906008747275,2.0645408502226176e-05,3.178485506757551e-05,3.467119592458435e-05,5.956205486549502e-06,1.1852074240864481e-05,-1.211527605011835e-06,-4.4377438585508225e-06,-5.9939708122755094e-06,-4.931461642205762e-06,-5.575587306068758e-06
0,audio/right,0.0934357267541394,2.0668977877593583e-05,2.574355043371347e-05,3.156299719073975e-05,-1.0802535861644638e-06,1.2046046530898973e-05,1.6485288631719106e-07,-5.845050685148844e-06,-8.98420431035061e-06,-6.763280079751695e-06,-7.880336765874374e-06
0,audio/right,0.10010239342080608,2.4727406517483513e-05,2.294053111515404e-05,2.680517026174583e-05,-1.5931714520270005e-06,1.042019208797166e-05,-1.6692512509428028e-06,-8.361887671070961e-06,-1.1642500564120554e-05,-8.19601039861315e-06,-8.85504958921524e-06
0,audio/right,0.10676906008747274,2.427757175148349e-05,2.5164428521409483e-05,2.5338206041809696e-05,3.297619940374848e-06,8.209990622245453e-06,-4.479840785466553e-06,-9.906641236008063e-06,-1.1737920876773426e-05,-8.172154781428077e-06,-6.216292683209431e-06
0,audio/right,0.11343572675413942,2.2341949378365387e-05,2.9496727774860396e-05,2.8432322938407266e-05,8.177633451039859e-06,9.502342312232565e-06,-2.12601725873687e-06,-7.790552395776195e-06,-8.89041121810394e-06,-5.779004244860028e-06,-1.5999981020557803e-06
0,audio/right,0.12010239342080607,2.3090958617077652e-05,2.8384231105880043e-05,2.8411687053676975e-05,9.066002442023932e-06,1.2104164740712928e-05,4.349277201232609e-06,-4.253293655996573e-06,-6.50401533820916e-06,-3.566521212661193e-06,-5.008886605318669e-08
0,audio/right,0.12676906008747274,2.4028388495296867e-05,2.1584661936848462e-05,2.2239493219594793e-05,7.608063576925404e-06,1.1028070383416877e-05,7.590013706171379e-06,-3.4360403574393166e-06,-7.537289053683533e-06,-4.8642652035136664e-06,-3.827875276674101e-06
0,audio/right,0.1334357267541394,2.177914555125075e-05,1.6874721288287176e-05,1.6422643674104827e-05,5.939279553556045e-06,6.8031612441423455e-06,4.082629582776879e-06,-5.130545159103366e-06,-1.0355159450005689e-05,-8.538961297097217e-06,-9.192964026235592e-06
0,audio/right,0.14010239342080605,1.9507874121623986e-05,1.838805211927354e-05,1.559689873465965e-05,4.846935215154705e-06,3.821163728025603e-06,-1.1802676678267373e-06,-5.7091136259016825e-06,-1.1340642666310961e-05,-1.007854721132521e-05,-1.0774705815835329e-05
0,audio/right,0.14676906008747276,1.7997115538344094e-05,1.893475909590991e-05,1.4894595167071287e-05,4.047281322248917e-06,1.9785459891535244e-06,-1.3839333337427984e-06,-3.9317193144717935e-06,-9.55434552344788e-06,-7.854428164437942e-06,-7.4366910642086785e-06
0,audio/right,0.1534357267541394,1.3553311055095915e-05,1.3141757543895442e-05,1.0345468514515224e-05,4.0355321867417555e-06,-6.914439793599571e-07,3.7220477937661554e-06,-1.768669880629141e-06,-6.763457329256033e-06,-4.741452406874927e-06,-3.1375248761200018e-06
0,audio/right,0.16010239342080607,5.919351251593199e-06,5.923057871833054e-06,4.525339321385749e-06,3.3832691484535935e-06,-2.653622847410301e-06,7.2233523136882645e-06,-8.546903649337181e-07,-4.289136761722664e-06,-3.168955849572013e-06,-1.7673527539429826e-06
0,audio/right,0.16676906008747272,1.8745259264106524e-06,4.585244662638351e-06,1.209903075503098e-06,1.5230182492818816e-06,-1.919434141761514e-06,4.0007622155841975e-06,-1.0247515989072503e-06,-2.4791961143753364e-06,-2.4112314726397506e-06,-3.1381365917036006e-06
0,audio/right,0.17343572675413937,2.5675704919625153e-06,6.289866753438104e-06,-1.3053865687506667e-07,2.6482197418001724e-07,-1.1067715346204267e-06,-2.1206193391803164e-06,-1.518268110939601e-06,-1.7038979215338161e-06,-1.5856347896348207e-06,-4.691307500161297e-06
0,audio/right,0.18010239342080608,2.0780515766698033e-06,4.964304086189274e-06,-9.347508362449533e-07,1.8713665184752324e-06,-1.7817562732220341e-06,-3.4878196036013662e-06,-1.3466400812531987e-06,-1.9217042189979577e-06,-1.611910056689563e-06,-5.753084666567537e-06
0,audio/right,0.18676906008747274,-2.076728589019448e-06,1.0395282274623825e-06,-2.545192580935899e-06,3.5143069487887314e-06,-1.693495120740843e-06,-7.732143539192831e-08,1.0390042659538436e-07,-2.0107793303733e-06,-2.7609331205159604e-06,-7.1521625285840855e-06
0,audio/right,0.1934357267541394,-3.87933111863446e-06,3.204666644869575e-08,-4.820721704623382e-06,2.7183794251847077e-06,-7.007801610157739e-07,1.6523619026597933e-06,1.9946449893761673e-06,-1.3030965437861594e-06,-3.374308491390341e-06,-8.33869947292529e-06
0,audio/right,0.20010239342080605,-1.3528105871372756e-06,1.905403574944717e-06,-5.2243995866926725e-06,2.1445407869790243e-06,-2.5008649168937124e-06,6.353700000631786e-07,3.0081547123521356e-06,-3.144828052704554e-07,-2.2552146926059364e-06,-7.532261876247614e-06
0,audio/right,0.2067690600874727,7.658841821127589e-07,3.1456860577834148e-06,-1.1610473842190558e-06,5.544572881055843e-06,-5.291804256048169e-06,2.668280656926487e-06,3.6451473731998784e-06,7.689412748491255e-07,7.048774133428611e-08,-4.63063414233629e-06
0,audio/right,0.2134357267541394,-2.4298884454336467e-07,3.0871381290173186e-06,3.6550545005502e-06,8.557797698529233e-06,-2.6318882393763596e-06,7.77349626924756e-06,5.084506829015575e-06,2.8065667024675114e-06,3.0032980366650583e-06,-1.0765603128016352e-06
0,audio/right,0.22010239342080606,5.210362732496896e-07,5.2192388925059675e-06,4.783976033437137e-06,6.0704557079421015e-06,5.174051578530791e-06,8.305697579990106e-06,6.6304062173974085e-06,5.680588826599587e-06,6.251447048703741e-06,1.9443734945900145e-06
0,audio/right,0.22676906008747272,5.5128032220321254e-06,9.8039514136432e-06,5.2103411322187814e-06,2.0407611530012943e-06,1.0352611945111502e-05,2.672874887437436e-06,6.820706406926319e-06,7.690463363998148e-06,8.531051592175712e-06,3.7077830801389324e-06
0,audio/right,0.23343572675413937,1.1441955534444147e-05,1.432513170704171e-05,1.0408089297119469e-05,5.1177310263421605e-06,1.1004877750959684e-05,-9.895671816067804e-07,5.995987131702398e-06,7.577733337118008e-06,8.357688352748143e-06,3.331777462155999e-06
0,audio/right,0.24010239342080608,1.404661784197414e-05,1.678487756569164e-05,1.6041290015744097e-05,1.300664370716964e-05,1.1166377303604124e-05,4.6294278492314524e-07,4.765035694756108e-06,5.728361893802947e-06,6.090113568985326e-06,1.1054981806267057e-06
0,audio/right,0.24676906008747274,1.3874220100885549e-05,1.8026430719364953e-05,1.5340847602860415e-05,1.6037494123424742e-05,1.012041375597943e-05,8.987782141547311e-07,2.403219693788131e-06,2.917163048929831e-06,3.2500300105335825e-06,-1.4959440603746157e-06
0,audio/right,0.2534357267541394,1.248925689753204e-05,1.7832162008687574e-05,1.1709408918625768e-05,1.163862102843036e-05,4.393386666732925e-06,-1.0691441777553955e-06,-4.49087111101484e-07,5.5419501270527334e-08,7.156095582798992e-07,-3.611765318704265e-06
0,audio/right,0.26010239342080604,1.1798258020507103e-05,1.604580517216085e-05,1.2472031891824343e-05,7.714603056011814e-06,-3.9122059472493793e-07,1.3570526202237499e-06,-8.140625977399037e-07,-1.4616363467725593e-06,-9.863567004378144e-07,-5.548772309073536e-06
0,audio/right,0.2667690600874727,1.1994454726977636e-05,1.3076717632137207e-05,1.3727309225617098e-05,8.085697783284285e-06,2.7798351123591567e-06,7.434854643925161e-06,1.243600838282179e-06,-1.371609233745066e-06,-1.5864821246119448e-06,-7.289995816872309e-06
0,audio/right,0.2734357267541394,1.0944579973861165e-05,1.0192293709591792e-05,8.786813673873735e-06,8.966360980771801e-06,7.313965289805111e-06,7.203882874136417e-06,1.03699667398032e-06,-2.066507677622275e-06,-2.6971030527381693e-06,-9.016988501073723e-06
0,audio/right,0.28010239342080606,5.16434712046764e-06,6.890805832550853e-06,1.8688113472835455e-06,7.309188650854491e-06,1.3157524491713403e-06,9.583107657568347e-08,-3.1923821746328887e-06,-5.395325951337907e-06,-6.39034912204796e-06,-1.1411315964767145e-05
0,audio/right,0.2867690600874727,-1.6335830218749681e-06,4.062528697539503e-06,6.015468329051129e-07,6.409099581139395e-06,-1.0709580475889197e-05,-2.2664740115919008e-06,-6.474112680605499e-06,-9.21019776657679e-06,-1.0804568208560614e-05,-1.3517138491058034e-05
0,audio/right,0.29343572675413937,-1.566660026655203e-06,3.700012964255224e-06,1.2690301971097494e-06,7.46169911738461e-06,-1.3883874377116449e-05,2.568833025131976e-06,-5.483540876672267e-06,-1.0099689318720162e-05,-1.1343074682010453e-05,-1.2538067539385005e-05
0,audio/right,0.3001023934208061,6.123336968261329e-06,6.530232552594976e-06,-1.2603793295704222e-06,7.389195151939169e-06,-6.418436240916486e-06,3.7284623111119732e-06,-3.9349529780211054e-06,-8.411181315590063e-06,-7.741585156753004e-06,-8.869618367783315e-06
0,audio/right,0.30676906008747273,1.1186372286095607e-05,9.145834547924373e-06,-1.7969141905173966e-06,4.1905064656796135e-06,-6.312512199710021e-07,-1.2120851085793993e-06,-4.5901873476489065e-06,-6.433779124022979e-06,-4.57806583443004e-06,-6.705332618282052e-06
0,audio/right,0.3134357267541394,8.995331550717444e-06,1.0053376512133781e-05,4.964428017186411e-06,1.7858177875363673e-06,-7.74402219316351e-07,-8.203164577527767e-07,-3.1275908629861137e-06,-3.6111451389148838e-06,-3.258030917621016e-06,-7.047154037859986e-06
0,audio/right,0.32010239342080604,6.66927375009439e-06,1.1054940012272382e-05,1.1429770429179665e-05,3.2005063175118722e-06,7.534045522431508e-07,7.2365810465443325e-06,3.237261147244988e-06,1.663652548810752e-06,-2.3009425326516677e-07,-5.518982886431821e-06
0,audio/right,0.32676906008747275,9.551178089144467e-06,1.3116612586706541e-05,9.93763048000894e-06,7.131681724726795e-06,6.394205094223983e-06,1.0041820122450533e-05,8.50624911458023e-06,6.549461288767446e-06,4.577469314233923e-06,-1.1847501330421972e-06
0,audio/right,0.3334357267541394,9.349971783229294e-06,1.2044811023421876e-05,4.4164907118304055e-06,9.852468781516311e-06,7.5540446620812944e-06,2.871388305369011e-06,6.661954416525119e-06,6.204448806286874e-06,5.479035140510083e-06,2.617861126547537e-07
0,audio/right,0.34010239342080606,4.6882781355060874e-07,6.495555548126645e-06,9.551235492269957e-07,1.0550312490829666e-05,1.7155515424444093e-07,-1.7618817947273297e-06,1.5596977680592595e-06,1.3011713800072363e-06,6.035154998780752e-07,-3.8095270129744867e-06
0,audio/right,0.3467690600874727,-7.60040999953596e-06,1.4834057025571908e-06,-2.6402241432034105e-06,9.40017086501253e-06,-8.428721117512264e-06,3.192320902363635e-06,2.3312670558994038e-07,-2.3647320564507086e-06,-4.0874950090234995e-06,-7.787912894389279e-06
0,audio/right,0.35343572675413937,-3.942758174547304e-06,2.1872316482104466e-06,-6.915054771493014e-06,7.211785619664918e-06,-1.0699722136735552e-05,7.899078179216505e-06,2.0346934909995206e-06,-2.4013312372100166e-06,-4.361203306713362e-06,-7.753149617667851e-06
0,audio/right,0.3601023934208061,3.7594211398326754e-06,5.20007383404196e-06,-6.9432412712680946e-06,5.299268914381605e-06,-8.86122722332808e-06,4.275812975037664e-06,1.7270412403277279e-06,-2.124559680977648e-06,-3.53839345254075e-06,-7.4619216233416455e-06
0,audio/right,0.36676906008747273,2.9619672598867153e-06,5.276691150701709e-06,-2.7842332742749475e-06,6.378624398257198e-06,-8.039758564504927e-06,-1.1166641265756249e-06,-9.387247569691275e-07,-3.77735685089092e-06,-4.712292063628306e-06,-9.688416414910433e-06
0,audio/right,0.3734357267541394,-2.790081316299568e-06,2.4201335177013436e-06,-2.17461165968654e-06,9.592026339077343e-06,-8.250606917365662e-06,-7.248022971044506e-07,-2.0235518134455825e-06,-4.843456023835866e-06,-4.9805363890447265e-06,-1.030700905139686e-05
0,audio/right,0.38010239342080604,-6.448740144446302e-07,3.6501693675317505e-07,-6.09083007906803e-06,1.0921616671918517e-05,-6.485332794738612e-06,2.9197340970083933e-06,-4.135581461449942e-07,-3.1814116588921454e-06,-2.0556597413343434e-06,-6.879600890853851e-06
0,audio/right,0.38676906008747275,6.482265286419459e-06,-8.275877104802963e-07,-7.697370342984365e-06,8.002790791273131e-06,-3.480645554434926e-06,4.9305104880029625e-06,1.6560611384960369e-06,-5.458562753351632e-07,8.786118725197942e-07,-3.6006050642312163e-06
0,audio/right,0.3934357267541394,5.7194428230871485e-06,-1.0506399135234803e-06,-4.595196025191819e-06,5.69710949424658e-06,-1.4498032345063713e-06,5.357500011212692e-06,3.240520542703227e-06,1.2492893597226895e-06,1.672712454721559e-06,-2.800849446230024e-06
0,audio/right,0.40010239342080606,-2.627724475337541e-06,2.205625310089533e-06,-1.1498834999916007e-06,9.011375567085488e-06,6.387954466423296e-07,5.21498574236989e-06,5.290363263407155e-06,3.6912419978185435e-06,3.665962621916642e-06,-5.960823365444236e-08
0,audio/right,0.40676906008747277,-3.75475159960378e-06,9.922695201726038e-06,2.3022833960697865e-06,1.5842828344923888e-05,5.3132686950950744e-06,5.321093932585615e-06,8.01116544445049e-06,7.868683916566343e-06,8.72932792879747e-06,6.537844960250628e-06
0,audio/right,0.41343572675413937,6.426686111707398e-06,1.6174717356014493e-05,7.1174143947048264e-06,1.8570442504170754e-05,9.856721087182337e-06,8.073992842450335e-06,1.0084385031090024e-05,1.1054633404061734e-05,1.2214363013304399e-05,1.1200046846442298e-05
0,audio/right,0.4201023934208061,1.6991814155265334e-05,1.6698415018547213e-05,9.69842845451902e-06,1.5975634052802173e-05,9.447430776858196e-06,1.3108966994988708e-05,1.0240652256690094e-05,1.0189574205488808e-05,9.938441924556034e-06,9.256600433093328e-06
0,audio/right,0.4267690600874727,1.9142834734826735e-05,1.4753374766478754e-05,7.1688606762863405e-06,1.3807705742982414e-05,5.636731336357361e-06,1.4969640938500426e-05,8.688245740331022e-06,6.840968468647539e-06,5.1002111691764785e-06,4.411178625677804e-06
0,audio/right,0.4334357267541394,1.6113347285778626e-05,1.6136025078246062e-05,5.883661995342612e-06,1.6116867046685733e-05,5.878116569898865e-06,1.2596918217640725e-05,7.422509302641069e-06,4.985429115878955e-06,3.296179806701247e-06,2.313615410016306e-06
0,audio/right,0.4401023934208061,1.236935098943738e-05,1.915419652484993e-05,1.0492395808167048e-05,1.8677252648956587e-05,1.1474294579456401e-05,1.2471358226632854e-05,7.901175095329423e-06,5.352114099403234e-06,4.667008320155271e-06,3.350304273569409e-06
0,audio/right,0.4467690600874727,1.0650103771731569e-05,1.9701837984375683e-05,1.532455206622515e-05,1.7236774409019376e-05,1.546599641441915e-05,1.5862739236449755e-05,8.43757831327077e-06,5.14651625980082e-06,5.450079418281224e-06,4.722478381538895e-06
0,audio/right,0.4534357267541394,1.3258128835832045e-05,1.8286777868712216e-05,1.468097328970104e-05,1.3211911220827061e-05,1.3611609935020492e-05,1.4036963648176093e-05,6.275376770275699e-06,3.2117181773418628e-06,4.4293187781611025e-06,4.950247950947116e-06
0,audio/right,0.4601023934208061,1.8508012170842506e-05,1.8774604252986934e-05,1.3771580761004318e-05,1.1214716686847904e-05,1.0606270702533994e-05,4.867359962584909e-06,2.6391160556839954e-06,1.628343649674464e-06,3.551493051347858e-06,3.3559327389203473e-06
0,audio/right,0.4667690600874727,1.7471877513559432e-05,1.9788261389761528e-05,1.693400866106288e-05,1.1417921783978641e-05,1.0100877964887943e-05,-1.6646442750256735e-07,1.440682006826825e-06,1.702606600204288e-06,3.6188521159159834e-06,-3.366310862153579e-07
0,audio/right,0.4734357267541394,9.426194757681856e-06,1.8094574900765756e-05,1.8696453437178903e-05,1.1645061146403975e-05,8.775250285461227e-06,5.268424917450392e-06,2.6506746446489414e-06,1.4169578376871796e-06,2.9146609772573765e-06,-4.610044392050131e-06
0,audio/right,0.480102393420806,6.355449736671392e-06,1.4503002826698643e-05,1.3943428402611981e-05,1.0595897680652847e-05,3.882165582440125e-06,1.0665389212204765e-05,2.0324606998931262e-06,-1.017929983624071e-06,3.049468015086095e-07,-6.812657118602679e-06
0,audio/right,0.4867690600874727,1.4015944389857427e-05,1.3612538168999447e-05,8.40929929339731e-06,9.644946103768374e-06,4.984100568970217e-07,6.993468553153486e-06,-1.177291570180071e-06,-3.782692733482604e-06,-2.4417916781097964e-06,-6.140471976823052e-06
0,audio/right,0.49343572675413944,1.8550660088875968e-05,1.5459237705036612e-05,7.821031133148202e-06,9.684187447719216e-06,3.8014569736120385e-06,1.5697004228788234e-06,-2.4000055916811834e-06,-3.6974137507649915e-06,-2.3886191980178545e-06,-3.5546958764599824e-06
0,audio/right,0.5001023934208061,1.0728258990512433e-05,1.6822217115359185e-05,9.278972760042644e-06,1.1407568211480815e-05,1.1175387958785324e-05,3.637867368446517e-06,8.158798360048948e-07,-5.509016247420056e-07,1.0556081018368467e-06,-5.694259621129467e-08
1,visual/left,-0.09989760657919393,2.2894092448682733e-06,5.900544222403221e-06,1.6837561697811412e-06,5.138121926291104e-06,5.523846747770698e-06,2.656393585020685e-06,2.0834046014247225e-06,1.340159657606002e-06,2.9976671455120008e-06,3.141896210015192e-06
1,visual/left,-0.09323093991252726,6.679154810944193e-06,4.2896601948707465e-06,4.32008518837998e-06,2.556037439817538e-06,-1.751009469287036e-06,-1.6430955853585395e-06,1.2678653079958143e-06,1.7905052566163897e-06,2.8509577803795127e-06,3.2816080458920764e-06
1,visual/left,-0.08656427324586059,-2.243141605690412e-08,1.713064104942625e-06,6.269152471471874e-06,8.085626746978223e-07,-6.901062637016571e-06,-1.8899381089451842e-06,5.282670881780333e-07,1.0202019385503944e-06,1.7041396790200823e-06,2.3537864874793012e-06
1,visual/left,-0.07989760657919392,-6.982814562112333e-06,-6.671417583026249e-07,4.061897504515071e-06,2.640856892590246e-06,-4.377670501362707e-06,1.4148602831477783e-06,3.9530155653737547e-07,1.737121813830742e-07,7.601835414961494e-07,1.3406339577987315e-06
1,visual/left,-0.07323093991252726,-4.982055301415444e-07,-1.2540831883970848e-06,-2.560557128586278e-07,4.004369514049566e-06,3.335812684751909e-06,3.2008218514640166e-06,4.6220595956572093e-07,1.1857943479374669e-07,1.9434823830384115e-07,3.762042094777702e-07
1,visual/left,-0.06656427324586059,9.662281257236857e-06,-5.053221000466893e-07,-3.0432976756050618e-06,-1.6429988469576034e-07,7.494656665820249e-06,2.5956407864011697e-06,6.742857219370478e-07,4.4116933941704065e-07,1.571966849846491e-07,-1.6166942963351525e-07
1,visual/left,-0.05989760657919393,6.7576807202585865e-06,-7.326528771272239e-07,-4.394563882976382e-06,-6.93280506367125e-06,3.628210109715212e-06,4.581869778136935e-07,-1.1815000226770655e-08,-3.065532225455056e-07,7.555991293076006e-08,-2.5894653434332553e-07
1,visual/left,-0.05323093991252726,-4.050619655224171e-06,-1.9409740455233875e-06,-4.895581276331991e-06,-7.763113175229293e-06,-1.7618657122614674e-06,-2.834912678546969e-06,-1.8128996269493191e-06,-1.8342732922218814e-06,-8.453772936212804e-07,-9.244776547197049e-07
1,visual/left,-0.04656427324586059,-6.893876673174151e-06,-2.4750651603648925e-06,-3.236053093328001e-06,-2.171409636977168e-06,-2.3473737566500155e-06,-5.165791439574128e-06,-2.923570185115279e-06,-2.234118916579811e-06,-2.4334755222386676e-06,-2.6778215021503385e-06
1,visual/left,-0.03989760657919393,-1.5266067522076466e-06,-1.13788641774383e-06,1.095328017754694e-06,1.299995614754964e-06,-1.395204537651543e-06,-3.1061004555434816e-06,-1.5261722571186064e-06,-8.179542034926667e-07,-2.892690486327168e-06,-3.4116270717924833e-06
1,visual/left,-0.03323093991252726,9.22826637123184e-07,9.038744003710269e-07,4.237477241707034e-06,-1.7266767505244128e-06,-4.855325546681681e-06,1.3453460253169754e-06,6.980836431296234e-07,4.100999821120646e-07,-1.73173058491111e-06,-1.2646765046473723e-06
1,visual/left,-0.026564273245860595,-1.4723767491740626e-06,1.8257469520454855e-06,2.331115137699177e-06,-4.299458518791764e-06,-8.676387059312969e-06,3.0027751777425844e-06,1.2561725171376595e-06,4.181890144956191e-09,-5.44494031938959e-07,1.8565001001599311e-06
1,visual/left,-0.019897606579193927,-2.960311600049575e-06,1.3432497704762485e-07,-3.0643415037504135e-06,-6.199412607422307e-07,-5.119862811665116e-06,1.071960889337995e-06,1.1933668861280606e-07,-1.0306394093175993e-06,-7.06330084935247e-07,2.1670483195646154e-06
1,visual/left,-0.01323093991252726,-2.084996033219491e-06,-2.7723164002529773e-06,-5.6800981825169125e-06,4.4717096241790484e-06,4.076859474434161e-06,-1.7716109065814615e-07,-6.799326286476255e-07,-8.937219785238291e-07,-9.179973698871211e-07,-3.856558725332407e-07
1,visual/left,-0.006564273245860591,-8.111277172533063e-07,-3.461315972411389e-06,-2.5489695195695587e-06,3.5519718186470774e-06,8.560744597479648e-06,1.1421116209352276e-07,-5.584517513574369e-07,3.2824787530709647e-07,5.882631341653049e-08,-2.5511163880835206e-06
1,visual/left,0.00010239342080607672,9.92014018182089e-07,1.7954306848936872e-07,3.120149115627981e-06,-7.939212143954918e-07,4.565631751917259e-06,-1.0431973797119722e-06,2.791836489624757e-08,1.4904034667505398e-06,1.2732160778160217e-06,-2.8816863724841174e-06
1,visual/left,0.006769060087472745,2.377073520596855e-06,4.8517424204927e-06,6.236869871442409e-06,-1.6713588503680432e-06,-1.7612130413061011e-06,-4.7531550278030085e-06,3.946266994294876e-07,1.61795797177839e-06,9.009495792826876e-07,-3.4278405824279067e-06
1,visual/left,0.013435726754139399,1.7519388298863508e-06,5.694394739809047e-06,5.303412055128477e-06,5.760289614833572e-07,-4.231332328667222e-06,-8.073048599733369e-06,-3.401980602031362e-08,4.064040008110418e-07,-7.05546737507351e-07,-5.246305458555815e-06
1,visual/left,0.020102393420806067,8.515954890436138e-07,1.5798958887134408e-06,1.0561648063810926e-06,-1.826522990359894e-07,-4.477773871696899e-06,-9.179383525788101e-06,-1.9637748446285967e-06,-2.025340557553859e-06,-2.3216283254872867e-06,-6.554511247977847e-06
1,visual/left,0.02676906008747275,3.2776564907181333e-07,-3.8038398843673685e-06,-4.774120537216507e-06,-4.130127220312308e-06,-5.8442259854281654e-06,-8.128263702344479e-06,-4.412801460054419e-06,-4.496760334815949e-06,-3.526919600059442e-06,-5.802484330155645e-06
1,visual/left,0.0334357267541394,-4.9986492404032095e-06,-7.293873858161896e-06,-9.131484802732565e-06,-6.256461101584773e-06,-7.763647587393795e-06,-5.590593466552597e-06,-5.878596544453449e-06,-5.906754494937899e-06,-4.691597483697393e-06,-4.3397218144537995e-06
1,visual/left,0.040102393420806084,-1.4452855355979769e-05,-7.787228952795645e-06,-8.599222259459449e-06,-5.254610148795902e-06,-7.11562033034532e-06,-2.7356172276648137e-06,-6.220232025050519e-06,-6.435673175942487e-06,-5.460063714259277e-06,-3.961874239738323e-06
1,visual/left,0.04676906008747274,-1.5302639103729117e-05,-5.683199348916405e-06,-4.240402209444177e-06,-4.621765718728007e-06,-3.8302518124802004e-06,-2.360624336462764e-06,-6.848094048512235e-06,-7.246114883755998e-06,-5.718751994400637e-06,-4.706905011358879e-06
1,visual/left,0.05343572675413939,-1.8086901990268394e-06,-1.9275761071655253e-06,-3.533061355256805e-07,-4.215881290629705e-06,5.708714293036405e-08,-4.508732337085976e-06,-7.612662990204813e-06,-8.116365909605158e-06,-5.526624866353513e-06,-5.358787038364567e-06
1,visual/left,0.060102393420806074,1.0118554224827399e-05,9.247605335238881e-07,1.0609810958391964e-06,-1.4269841470141667e-06,2.408322511628065e-06,-5.378498502024396e-06,-7.2683041990993816e-06,-7.724094753511687e-06,-4.605108589547226e-06,-4.975571223698137e-06
1,visual/left,0.06676906008747273,5.3753010895246285e-06,1.6496757012323048e-06,2.215094699130133e-06,1.816751647784747e-06,2.3701654927281294e-06,-2.353388720325835e-06,-5.595542085929925e-06,-5.668338426196602e-06,-2.313048505609225e-06,-2.7854033603091433e-06
1,visual/left,0.07343572675413941,-6.183210194674447e-06,1.6347966433685936e-06,4.167077086544765e-06,3.622367068791995e-07,-8.11231315166055e-08,8.033902969633693e-07,-4.206335020866329e-06,-3.472982175108776e-06,3.263260656134117e-07,6.990847318269454e-07
1,visual/left,0.08010239342080606,-5.770681790473383e-06,2.9186351051347753e-06,5.617557572249132e-06,-4.296532617905716e-06,-1.9352100419925816e-06,-4.825057174600265e-09,-3.6561561857442993e-06,-2.29931706657685e-06,1.61452382101647e-06,2.9739111356358438e-06
1,visual/left,0.08676906008747275,4.566467952488728e-06,4.0790785939553475e-06,5.780967420255816e-06,-5.93279074450187e-06,5.74925104950192e-08,-2.8484006161616107e-06,-3.303018244961659e-06,-2.044772949496563e-06,9.917188350775603e-07,1.4406691532743076e-06
1,visual/left,0.0934357267541394,8.426655739805942e-06,3.05146293335183e-06,5.813239232182318e-06,-3.1502766318985306e-06,4.571228130534211e-06,-2.6937147545301318e-06,-2.7126940869837617e-06,-2.395299494656246e-06,-7.052695714672874e-07,-3.0516642036550015e-06
1,visual/left,0.10010239342080608,1.5244242501461886e-06,6.614583093918915e-07,5.6620689142745565e-06,-6.379027691552413e-07,5.453485008104849e-06,-3.4257759144883475e-07,-2.736862195449251e-06,-3.867971739823709e-06,-3.2679536258702473e-06,-7.1796352070824e-06
1,visual/left,0.10676906008747274,-5.198760120827394e-06,-9.935478687636607e-08,4.354615239372506e-06,-1.4341027698097234e-07,1.2579243867271837e-06,-4.32766696539708e-07,-3.497375324181878e-06,-6.045682953385435e-06,-6.026763637284055e-06,-8.752684449016046e-06
1,visual/left,0.11343572675413942,-4.3429904619841496e-06,4.41622886758508e-07,1.7529105939901277e-06,-2.0360555985470113e-07,-2.5464050137278585e-06,-3.577462493762041e-06,-4.313854821408027e-06,-7.280623276288773e-06,-7.188243762535227e-06,-8.154975218635815e-06
1,visual/left,0.12010239342080607,7.755146234793781e-07,7.285166583541385e-08,-5.99559684388969e-07,-9.954901163451466e-07,-2.266818145504054e-06,-4.887118578987371e-06,-4.3443624600141015e-06,-6.496166862703489e-06,-5.589374422661799e-06,-6.147420123048668e-06
1,visual/left,0.12676906008747274,3.7815862327344245e-06,-8.496031109117945e-07,-1.4196421723402548e-06,-3.0143157641132514e-06,-2.4023044461046493e-06,-2.460308805600831e-06,-3.5318150416375757e-06,-4.683522151714187e-06,-2.9257672500126157e-06,-3.2439371740100377e-06
1,visual/left,0.1334357267541394,2.583768541388916e-06,8.433424637565726e-07,-3.4136103345142644e-08,-2.2776058565514393e-06,-5.589600682633172e-06,4.792787016692644e-07,-1.6621310574680675e-06,-2.753368648780326e-06,-6.831706951758688e-07,-2.110912806988402e-07
1,visual/left,0.14010239342080605,-2.2344503231578715e-07,4.2642145610772015e-06,2.6648110536089143e-06,2.7470543977686362e-06,-6.045873854526343e-06,8.376712351788921e-07,7.827477774868865e-07,-4.3943817020941614e-07,1.8203109522450556e-06,2.0111540908533633e-06
1,visual/left,0.14676906008747276,-6.134842292657615e-07,5.023152149162024e-06,5.180011646605087e-06,5.802543001953144e-06,1.5113366795186294e-06,-2.1731323362816774e-08,2.7224085844074315e-06,2.426838755666721e-06,5.154600612715943e-06,3.2770800072263847e-06
1,visual/left,0.1534357267541394,1.152759342625428e-06,2.3727135290502142e-06,6.657546710945636e-06,1.8314407325190604e-06,1.1119704591792087e-05,-3.705608085944702e-08,3.4437598753346087e-06,4.696538950286315e-06,7.285529081365893e-06,3.4378340066776427e-06
1,visual/left,0.16010239342080607,1.6143660700667622e-06,1.9464235595836224e-06,7.680351217623762e-06,-2.568205654140292e-06,1.4613689975309996e-05,1.4964991389292922e-06,4.311941407776828e-06,6.057237109138308e-06,7.406068939510608e-06,2.4877849787733843e-06
1,visual/left,0.16676906008747272,1.2034268071789208e-06,6.115278375812275e-06,7.9420712041941e-06,1.9890795046350506e-07,1.264206908223285e-05,3.852872229470609e-06,6.268307179773367e-06,7.439291170695192e-06,7.740006284242455e-06,1.6086823803093186e-06
1,visual/left,0.17343572675413937,3.830438618754146e-06,9.76857214478188e-06,7.037443047349919e-06,5.7068724130273966e-06,1.0572799484240227e-05,5.571682095868769e-06,7.872261269989364e-06,8.863417391329756e-06,9.719265708615786e-06,2.912341841343363e-06
1,visual/left,0.18010239342080608,6.950344682881471e-06,8.02329850086903e-06,5.9880727921709235e-06,4.642111290464801e-06,8.079994204681132e-06,4.371879059808137e-06,6.779515961199326e-06,8.488630501841762e-06,1.0741342309643538e-05,6.367941849752092e-06
1,visual/left,0.18676906008747274,4.152181614176033e-06,4.395878284438954e-06,6.363619527262548e-06,-1.2242890528922793e-06,3.824903723673189e-06,1.0963098686518651e-06,3.9450145697792755e-06,5.998585917905834e-06,8.943381304575675e-06,9.327130799977143e-06
1,visual/left,0.1934357267541394,-1.7395920121119552e-06,3.7409053694039766e-06,6.976962262134951e-06,-3.948522285097229e-06,1.2510266435290298e-06,-8.546345004334569e-07,1.914783897306094e-06,3.3305836201401452e-06,6.017857559342881e-06,9.042731300658938e-06
1,visual/left,0.20010239342080605,-1.6157267735980792e-06,4.487636269300777e-06,6.245122009618714e-06,-3.263577886406674e-06,3.300505715210315e-06,-5.614628249849111e-07,8.455846428980811e-07,1.4452698316061227e-06,3.621967197622388e-06,5.116361314029556e-06
1,visual/left,0.2067690600874727,1.9882856716472724e-06,2.043671208376265e-06,4.295158897316658e-06,-5.408061537453652e-06,5.648367147020475e-06,-1.55641640995203e-06,-1.5507713256870652e-06,-1.1867942716042624e-06,4.942610281168481e-07,-5.759140981202808e-07
1,visual/left,0.2134357267541394,-1.4429111803693935e-06,-2.2870457423566517e-06,1.2838810074323518e-06,-1.0012349933178673e-05,4.882274503613319e-06,-4.146260906838391e-06,-4.540632187187563e-06,-4.23332014294623e-06,-2.525806671762172e-06,-4.0185855922076215e-06
1,visual/left,0.22010239342080606,-9.124358764854358e-06,-4.116651919076476e-06,-3.6853007199660435e-06,-1.1058797925420038e-05,3.714808840465113e-06,-3.999661844525174e-06,-4.627925105300983e-06,-4.3638607376150036e-06,-1.4195310793035594e-06,-1.8347012977976513e-06
1,visual/left,0.22676906008747272,-7.539809091952633e-06,-2.515877523500746e-06,-7.461888158201734e-06,-7.19897232453376e-06,3.937344374201002e-06,5.2556897473344625e-08,-1.095294898519361e-06,-5.494902780117101e-07,4.045305262204726e-06,3.9960638502254985e-06
1,visual/left,0.23343572675413937,1.483246551696334e-06,-7.73379514346296e-07,-5.113873236405745e-06,-4.087297887419008e-06,9.183188298027206e-07,2.0734254971362664e-06,1.3933032175392707e-06,2.2602482341257796e-06,6.642792451506855e-06,6.077872905065721e-06
1,visual/left,0.24010239342080608,1.7726516397470903e-06,-9.823380863789128e-07,7.339687421885935e-07,-5.250984297822419e-06,-5.93021082557584e-06,-8.54128110824592e-07,-5.085252782744987e-07,-4.308906523820226e-07,1.5843892310590228e-06,6.115729461149984e-07
1,visual/left,0.24676906008747274,-8.368519828702876e-06,-3.3886632544384088e-06,3.5225982861470617e-07,-8.502565992881887e-06,-9.26702051736583e-06,-3.7820989506282896e-06,-4.30320841489141e-06,-5.9960420627457864e-06,-5.901241721177283e-06,-7.1589096541159095e-06
1,visual/left,0.2534357267541394,-1.2136800099802716e-05,-6.484070791745261e-06,-7.648647478586766e-06,-9.410213881398484e-06,-5.1732800118278075e-06,-1.7462952805085276e-06,-5.1254996623392555e-06,-7.9616403790743e-06,-7.617992361817457e-06,-9.970436461139325e-06
1,visual/left,0.26010239342080604,-4.075018846170713e-06,-7.98786518909157e-06,-1.352853246605349e-05,-6.908886564985561e-06,-9.543905723490231e-07,2.3519035312113704e-06,-2.7416426694675535e-06,-5.156804820826287e-06,-4.233525810414994e-06,-8.19298351222938e-06
1,visual/left,0.2667690600874727,1.748143737395985e-06,-6.468782016443196e-06,-1.1847863257247681e-05,-3.7149316632875037e-06,-2.4042918838728004e-06,3.762166425536712e-06,-6.082838653171827e-07,-2.1536427992736433e-06,-2.331904481542561e-06,-6.710108411080369e-06
1,visual/left,0.2734357267541394,-2.0885780488097146e-06,-4.263486788091891e-06,-9.133708454544116e-06,-3.5114449500539553e-06,-5.358969592792662e-06,1.8776331147981592e-06,-8.521392214906383e-07,-2.0237535653802238e-06,-3.87557104873693e-06,-6.643565934336009e-06
1,visual/left,0.28010239342080606,-5.033837858949196e-06,-3.340040314772015e-06,-9.789936163430773e-06,-5.513578504317948e-06,-4.560843835733586e-06,-7.429397669376485e-07,-1.777149674404688e-06,-2.626629916738336e-06,-4.578605502435305e-06,-5.652958492367598e-06
1,visual/left,0.2867690600874727,-8.369902050814042e-07,-2.134031815660409e-06,-8.861645741398614e-06,-5.794020942256381e-06,-3.4779756279350754e-06,-2.1548195452527218e-06,-1.657832886104545e-06,-1.8253832610889188e-06,-2.751661649350285e-06,-4.171617520208406e-06
1,visual/left,0.29343572675413937,2.1747258526475316e-06,9.026937495041794e-07,-3.127919370540262e-06,-3.3846000283940366e-06,-5.658120705179004e-06,-6.789079555406464e-07,-1.0593369958049346e-06,-1.1538704957793214e-06,-1.5687795107885565e-06,-4.276037799184431e-06
1,visual/left,0.3001023934208061,-8.286756230423677e-07,1.6547917117029517e-06,1.1399575573668612e-06,-2.537029622497375e-06,-7.436115477026668e-06,2.5966407987726506e-06,-1.8627764292090745e-06,-2.8460946686785093e-06,-3.1947832370649877e-06,-5.214348742330679e-06
1,visual/left,0.30676906008747273,-2.3988123545718658e-06,-3.0460831455927584e-06,-8.422520078359945e-07,-4.532215059705384e-06,-4.5251210909218795e-06,3.5852426675319527e-06,-3.888065470590122e-06,-5.588621460157975e-06,-5.24656388622217e-06,-4.950770851927846e-06
1,visual/left,0.3134357267541394,3.3764225235048753e-07,-8.360389761174088e-06,-5.148299177015839e-06,-4.995257295678095e-06,-9.867046109390061e-07,-3.268476363880516e-09,-5.361903130666077e-06,-6.87915056479278e-06,-5.716085405183559e-06,-4.756994641859762e-06
1,visual/left,0.32010239342080604,2.3149249928126748e-07,-6.656368554514224e-06,-6.220171839314063e-06,-1.827041372407091e-06,-2.3123350668055764e-06,-4.02488887950528e-06,-5.037519828836165e-06,-6.636833728431442e-06,-5.641133411206677e-06,-6.597853208277651e-06
1,visual/left,0.32676906008747275,-3.3916387808484076e-06,3.691992530748285e-07,-4.6349845925248814e-06,-1.047936472332061e-06,-7.071456007018711e-06,-4.5336245266485675e-06,-4.031430882900426e-06,-6.620125223291914e-06,-6.493032711731747e-06,-8.92071134255738e-06
1,visual/left,0.3334357267541394,-1.0556444861122055e-06,4.557750777685873e-06,-3.071358590159498e-06,-6.580482206646752e-06,-8.928612101135572e-06,-3.40249657341352e-06,-3.7044169725232976e-06,-6.9959017452321684e-06,-7.3107313462374404e-06,-8.830883448372043e-06
1,visual/left,0.34010239342080606,6.726394712720042e-06,2.4468961775137257e-06,-2.620661249604572e-06,-1.2086530895625973e-05,-5.899092923053364e-06,-4.502810912199084e-06,-4.175110024243455e-06,-6.849261547658032e-06,-7.125717666700458e-06,-6.843646854219049e-06
1,visual/left,0.3467690600874727,6.034180843314782e-06,-1.4136638275918379e-06,-3.268964812722305e-06,-9.187359801516254e-06,-1.318848090943492e-06,-6.646725558167817e-06,-4.225371118404807e-06,-6.044493549069471e-06,-6.170660001822953e-06,-4.899553440671043e-06
1,visual/left,0.35343572675413937,-6.556168143485033e-06,-2.9630821626246766e-06,-4.64036529257199e-06,-1.2212423200182773e-06,3.843079791182497e-07,-7.301483457868692e-06,-3.453654306600015e-06,-5.175557921385939e-06,-4.819330060835397e-06,-2.943589648045538e-06
1,visual/left,0.3601023934208061,-1.4553476511604939e-05,-1.9961105027039136e-06,-4.533787349458243e-06,1.9014202008708982e-06,-7.923328301619234e-07,-7.25245352790058e-06,-2.227188798744655e-06,-3.8533196303451645e-06,-2.570846699168585e-06,-2.631348867059776e-07
1,visual/left,0.36676906008747273,-7.0734005135051226e-06,-7.470190510777227e-08,-1.9711478631957164e-06,-1.912285838791588e-06,-1.3003489605202913e-06,-8.708222190555006e-06,-1.2469419889227458e-06,-1.7641262951554815e-06,3.587462473006342e-08,1.7487368687756283e-06
1,visual/left,0.3734357267541394,4.430847313971395e-06,2.0193995298032087e-06,8.445954852974762e-07,-5.1306715078762005e-06,1.333490039611833e-06,-1.0046657930534084e-05,-3.07743539362418e-07,4.114659488992692e-07,1.895275265689718e-06,2.045012875583382e-06
1,visual/left,0.38010239342080604,5.744844422748173e-06,3.280349819421161e-06,9.413815559207823e-07,-4.203555766097538e-06,3.729305723203319e-06,-8.40661886627962e-06,1.0664262894107475e-06,1.7690054900747582e-06,2.74997396763006e-06,1.9051026282219764e-06
1,visual/left,0.38676906008747275,1.7284999315540463e-06,4.012393530825031e-06,-9.359836044380385e-07,-3.4466239849200763e-06,2.36362463707497e-06,-3.6258781574986103e-06,3.243000760022588e-06,2.5960696862947373e-06,3.3939771421268503e-06,2.60157041387267e-06
1,visual/left,0.3934357267541394,4.286582473353746e-06,4.944680266198459e-06,-1.9606718388783057e-06,-5.5152638589699335e-06,-4.7172390604531814e-08,8.233575929326785e-07,5.192656930712354e-06,3.1203512224019223e-06,3.614645998499626e-06,2.9600999911679687e-06
1,visual/left,0.40010239342080606,1.1574904764587105e-05,5.577289249072699e-06,-7.174924935980544e-07,-5.592776157651175e-06,1.9298886566378834e-06,1.9080142377022365e-06,5.5473190922609146e-06,3.0462418283023656e-06,3.167902020843962e-06,2.068927306938271e-06
1,visual/left,0.40676906008747277,1.202476445650245e-05,3.872768112165015e-06,7.232881361176508e-07,-1.220905182946735e-06,5.798464962715654e-06,-4.969482439418707e-07,3.872942011756135e-06,2.2415399878500195e-06,2.730051448772522e-06,9.902638491902876e-07
1,visual/left,0.41343572675413937,2.42188922021349e-06,3.5863058531711106e-07,-3.630663233921901e-07,2.0085965253885413e-06,4.8620350074235536e-06,-3.224989580037085e-06,1.4813253031282189e-06,1.1471776813547544e-06,2.786771287743028e-06,4.714771241259509e-07
1,visual/left,0.4201023934208061,-9.60404173229628e-06,-2.7206712992320593e-06,-4.179937333288049e-06,-1.2380863784575407e-06,-8.232453705308525e-07,-4.701322104660368e-06,-1.0154179469915676e-06,-7.224209932875961e-07,1.5273392166505748e-06,-1.089260269854434e-06
1,visual/left,0.4267690600874727,-1.5005326022783514e-05,-4.180454606984148e-06,-7.403341659500576e-06,-6.771906950350095e-06,-4.6312003315722955e-06,-6.727453943147818e-06,-3.996615332308432e-06,-3.853894027034773e-06,-2.2200240621828526e-06,-4.5365720439370245e-06
1,visual/left,0.4334357267541394,-1.0148613969817365e-05,-4.510383022852447e-06,-7.924906362946502e-06,-8.484212854696715e-06,-5.481410048780832e-06,-1.0397014285847247e-05,-7.085896711727862e-06,-6.873863860790843e-06,-6.273266128402807e-06,-7.68958975362965e-06
1,visual/left,0.4401023934208061,8.048906088226506e-07,-2.9175669069467095e-06,-7.273336967544005e-06,-7.687153138386501e-06,-6.852561308770561e-06,-1.12380340464912e-05,-7.761819524277285e-06,-7.151641278414246e-06,-7.115530334887681e-06,-7.648257869798803e-06
1,visual/left,0.4467690600874727,6.712549324033778e-06,-6.614137756031542e-08,-7.8076767861103e-06,-9.316832139014823e-06,-7.810523910751121e-06,-6.3343794961010655e-06,-5.297195986255425e-06,-4.697392249530021e-06,-5.050337109089962e-06,-4.743410954111907e-06
1,visual/left,0.4534357267541394,8.902675851114642e-07,5.477480222974885e-07,-8.4614739709072e-06,-1.1923229036217076e-05,-4.449909237619822e-06,-1.381146363964076e-06,-2.725150421298171e-06,-2.409552498544602e-06,-3.185114156362397e-06,-1.7700725711408094e-06
1,visual/left,0.4601023934208061,-9.012754615084778e-06,-3.0513554557087065e-06,-7.683304240247096e-06,-1.1304519863145444e-05,-5.761618015837449e-07,-4.336253272721409e-06,-3.5143812826743596e-06,-2.61585524719571e-06,-3.168144315677438e-06,-8.883434533493346e-07
1,visual/left,0.4667690600874727,-1.0734537032703803e-05,-6.293485898873453e-06,-6.300255976286446e-06,-8.382287774486138e-06,-2.3889553856699655e-06,-1.2149433449373922e-05,-6.29377078986087e-06,-4.431153756823671e-06,-3.733016638659209e-06,-1.9304893162340875e-06
1,visual/left,0.4734357267541394,-5.828156888177101e-06,-5.16308483635361e-06,-5.978988784133446e-06,-7.3061116169273435e-06,-7.0157202904021485e-06,-1.5033468585768625e-05,-7.418069749404248e-06,-5.8949416147318564e-06,-4.175831704164574e-06,-3.7310200458964244e-06
1,visual/left,0.480102393420806,-5.360628994931506e-06,-2.5823194430975064e-06,-6.093036381376084e-06,-7.145633593880653e-06,-6.401425469015539e-06,-1.0586906917949453e-05,-6.084901952875515e-06,-6.082001116095124e-06,-4.851753701333106e-06,-4.950226907957929e-06
1,visual/left,0.4867690600874727,-1.035962662249446e-05,-3.282242707498011e-06,-6.132039702061974e-06,-5.162541157707362e-06,-2.1564537936538476e-06,-5.9525609373408414e-06,-4.9486381497481e-06,-5.365011366331368e-06,-5.441194356772349e-06,-4.581123681734061e-06
1,visual/left,0.49343572675413944,-1.021823304347704e-05,-4.602551120873915e-06,-6.6462960190594256e-06,-3.6104985827272597e-06,-1.7521183418556016e-06,-4.876638484265125e-06,-5.0651223900309516e-06,-4.283848814916226e-06,-4.646333987167255e-06,-2.488141239960484e-06
1,visual/left,0.5001023934208061,-1.56116651020191e-06,-2.276843912732253e-06,-7.537015006672012e-06,-6.889310996860988e-06,-5.262567086276296e-06,-4.4691742212209315e-06,-5.312297967164763e-06,-3.678906461614077e-06,-3.262017457774877e-06,-4.2351013990637903e-07
2,audio/left,-0.09989760657919393,-1.3456905401420954e-06,-3.80767916888731e-06,-3.343754123888865e-06,-8.175140610819179e-06,-1.7746679134842408e-06,1.0567867328024315e-06,1.8994301417331489e-06,7.521748365547367e-07,-1.249463198114015e-07,-3.5015849005028283e-06
2,audio/left,-0.09323093991252726,-4.741727511619795e-06,-2.516617297605571e-06,-1.0167141018941002e-06,-3.434859918150105e-06,-4.7259840826280815e-06,-1.9312097069047876e-06,-1.5587336839523745e-07,-1.1567304989822852e-06,-1.104302700156146e-06,-3.281367962589299e-06
2,audio/left,-0.08656427324586059,-3.901044534340991e-06,-4.127189586869886e-06,-3.2094085329607647e-06,-2.6284098612317264e-07,-8.038384841756026e-06,-1.1217199008763288e-06,-1.4201383923621198e-06,-1.8860361505664172e-06,-1.0475348195602453e-06,-1.3292344390762234e-06
2,audio/left,-0.07989760657919392,4.542304455804202e-06,-3.4098482108964354e-06,-6.446553185350695e-06,-1.1538399479869374e-06,-8.71028581548535e-06,2.4236036024760564e-06,-4.003675992735208e-08,-2.439271727531006e-07,5.460896594068704e-07,1.3559445878446618e-06
2,audio/left,-0.07323093991252726,7.659075210095404e-06,1.167768480216555e-06,-4.7840036796483755e-06,3.171436016096257e-08,-5.097238730088736e-06,4.717986030723319e-06,2.8482722057636635e-06,2.16688193500199e-06,1.5447029538403933e-06,1.8576390032053694e-06
2,audio/left,-0.06656427324586059,-7.192570185763851e-07,3.635704043934885e-06,-6.039465752693661e-07,4.2061677709573796e-06,1.8073292194088796e-06,3.5832031655102664e-06,3.831557007274439e-06,3.2617329276208495e-06,1.1256790353337148e-06,-2.9461840224162626e-07
2,audio/left,-0.05989760657919393,-8.668791274132055e-06,1.1711203278743475e-06,1.0589506111738857e-06,5.365037383297183e-06,6.490832057554186e-06,3.4249088172556753e-07,1.6851005073370844e-06,2.7744815334587654e-06,7.275694974993423e-07,-2.3038655741455448e-06
2,audio/left,-0.05323093991252726,-5.404328562791631e-06,-7.780745109082382e-07,1.9802864468901254e-06,2.168440135184917e-06,4.7641415819155e-06,-1.823943510364326e-06,-1.1669922242589991e-06,1.6185028502395051e-06,7.984520774568588e-07,-2.38975525086208e-06
2,audio/left,-0.04656427324586059,3.111718233868837e-06,9.14866403894325e-07,4.284783532910311e-06,2.07771776965585e-07,-1.7293673315783508e-06,-2.1792879545191543e-06,-2.7603925075721978e-06,-3.902463222975019e-07,-9.90547176205129e-07,-2.2313218832038076e-06
2,audio/left,-0.03989760657919393,7.801655843680733e-06,2.4473598119274186e-06,4.128027797708281e-06,4.4375289106669304e-07,-5.032080460144185e-06,-2.3298409913905028e-06,-3.678363844201696e-06,-3.111325638230045e-06,-4.39511926549209e-06,-3.191154150645454e-06
2,audio/left,-0.03323093991252726,8.915627184608498e-06,1.555674350349793e-06,-3.8877490399752413e-07,-7.412539941724023e-07,-1.0465445285720257e-06,-2.6858457444664345e-06,-3.6626828011017196e-06,-4.051591649604164e-06,-5.08741988669651e-06,-3.368204851257476e-06
2,audio/left,-0.026564273245860595,8.749482225700528e-06,1.3321032185651598e-06,-3.1602316451448877e-06,-2.224460942151827e-06,6.277563684014409e-06,-7.357165737768456e-07,-7.22030809262578e-07,-9.463918086940508e-07,-6.973956830925671e-07,-4.12127604408261e-07
2,audio/left,-0.019897606579193927,4.147108219648788e-06,2.4093640018954133e-06,-2.584218055060473e-07,4.0168779419622184e-07,9.180286551196461e-06,3.4161756293438556e-06,3.799502216384842e-06,3.269455691702237e-06,4.113245545760725e-06,4.253721893695405e-06
2,audio/left,-0.01323093991252726,-4.462385711315995e-06,1.757860421190618e-06,3.749737331974656e-06,3.8569317736454055e-06,6.340001310834557e-06,4.71126116686913e-06,4.471263309210806e-06,3.2205049150068322e-06,4.197880590444509e-06,6.760520917889462e-06
2,audio/left,-0.006564273245860591,-9.430542888448307e-06,-5.082113407979801e-07,4.424677421493517e-06,1.9758513006027206e-06,1.739102898231806e-06,-3.8502218816938725e-07,-2.7732758788613336e-07,-1.161572235884388e-06,9.148128355005829e-07,5.423943967204927e-06
2,audio/left,0.00010239342080607672,-6.253203332039719e-06,-1.2442009438830814e-06,3.585345411509846e-06,-2.664958786673441e-06,-4.4470359941878557e-07,-7.058920638982847e-06,-4.651287092735949e-06,-4.1159132125729635e-06,-5.211663442289029e-07,2.651464649092793e-06
2,audio/left,0.006769060087472745,-7.540098546512305e-07,-1.5585048524663795e-06,1.9333632980392156e-06,-3.192473991281837e-06,-7.210206816519917e-07,-9.07976450198569e-06,-4.3723695240362105e-06,-3.1744295128962464e-06,5.588278523967839e-07,1.568604261006306e-06
2,audio/left,0.013435726754139399,1.194074685919808e-07,-4.6143905157173774e-06,-3.0320573449128504e-06,-2.544446945476995e-06,-8.818333378862903e-07,-7.994651502631698e-06,-3.4176786217128957e-06,-2.5228544916762713e-06,7.006766859708373e-07,2.254480988945717e-06
2,audio/left,0.020102393420806067,-3.7240149264088056e-06,-8.749160324729223e-06,-9.3352098369385e-06,-7.296569600544603e-06,-2.503208047487676e-06,-9.374551365463649e-06,-6.447681975375404e-06,-5.475240407776481e-06,-1.7832230036291261e-06,2.200550533083707e-06
2,audio/left,0.02676906008747275,-7.975053581283567e-06,-9.969033218599135e-06,-1.0612278346277562e-05,-1.3078884472481755e-05,-4.884505564156541e-06,-1.1936417882093287e-05,-1.021676595466909e-05,-8.906725295400024e-06,-4.621071451946016e-06,2.846904708879919e-07
2,audio/left,0.0334357267541394,-1.0545486072252889e-05,-9.371480251749465e-06,-7.1436763321322625e-06,-1.00119555218942e-05,-7.801934579475934e-06,-1.0791655227046154e-05,-9.468990198922607e-06,-9.29446728696847e-06,-6.2467700790253615e-06,-2.21159137632421e-06
2,audio/left,0.040102393420806084,-1.1536227522224188e-05,-9.912219726209693e-06,-5.493109544487145e-06,-1.2895017613431115e-06,-1.1112108983316994e-05,-7.420328503668905e-06,-6.211340390297336e-06,-8.162210377178532e-06,-7.223658422812085e-06,-4.395311322665849e-06
2,audio/left,0.04676906008747274,-1.1097311985735483e-05,-1.0367977871458908e-05,-6.972204285272389e-06,1.4652052118373098e-06,-1.4448892351405878e-05,-7.3035133024762525e-06,-5.319425291008785e-06,-7.873924831522613e-06,-8.005497475993702e-06,-7.030832072511041e-06
2,audio/left,0.05343572675413939,-7.914814412745746e-06,-8.423246595015995e-06,-6.513742807360441e-06,-2.229678566567077e-06,-1.4429409968436942e-05,-8.341702310869042e-06,-5.1941401795631695e-06,-6.531514220577147e-06,-7.283610995696726e-06,-9.665783754117392e-06
2,audio/left,0.060102393420806074,-2.1759115360352646e-06,-6.300558602062752e-06,-4.242674886985231e-06,-1.4029682420310837e-06,-9.981634461491945e-06,-4.296447491926668e-06,-1.3755873117136499e-06,-2.4815441637354847e-06,-4.9953678637505394e-06,-1.0074317992684697e-05
2,audio/left,0.06676906008747273,2.162809742804088e-06,-6.515546135016209e-06,-5.863677818634192e-06,5.6771118110793255e-06,-5.242400086187477e-06,2.5162225400260316e-06,3.739244705396349e-06,1.0308291415851033e-06,-3.0572368518682326e-06,-7.902324779164593e-06
2,audio/left,0.07343572675413941,6.588520961882163e-08,-7.524548962406165e-06,-1.1713593394612514e-05,8.162679448361835e-06,-6.1061610308883855e-06,2.5205815134794243e-06,3.503969164291169e-06,1.0592192994947644e-07,-3.2574723287927468e-06,-6.125281558723276e-06
2,audio/left,0.08010239342080606,-6.600230191076692e-06,-7.714433899736906e-06,-1.54523948965067e-05,5.356841147804896e-07,-1.0737803987209625e-05,-5.384392223700504e-06,-2.249038119984276e-06,-3.6986521402261238e-06,-4.923723827130206e-06,-6.847671796762539e-06
2,audio/left,0.08676906008747275,-1.0747494059787385e-05,-9.380011584780845e-06,-1.513662154693937e-05,-8.414085471113867e-06,-1.4071716697154424e-05,-1.2004427386090428e-05,-7.041684095313692e-06,-6.473115538665109e-06,-7.023792517371663e-06,-8.966861393484745e-06
2,audio/left,0.0934357267541394,-1.0487017605089512e-05,-1.3492752124274254e-05,-1.4727121201610073e-05,-1.0172859918981669e-05,-1.5753501556983967e-05,-1.1951583177688003e-05,-7.532720087009134e-06,-7.521446947532027e-06,-9.215634817928526e-06,-1.081321350648809e-05
2,audio/left,0.10010239342080608,-1.2198012203414525e-05,-1.664754160456212e-05,-1.5485604039627356e-05,-7.2002652673667015e-06,-1.9660678721559507e-05,-1.0413144897090029e-05,-6.651277093691495e-06,-8.49186536162156e-06,-1.1059194758332253e-05,-1.2126941708266697e-05
2,audio/left,0.10676906008747274,-1.8088658967134433e-05,-1.6365127069513155e-05,-1.4806246583268415e-05,-6.304858239214456e-06,-2.336012569043118e-05,-1.201131823798008e-05,-7.179248977465455e-06,-9.27198757451189e-06,-1.0967613862307035e-05,-1.2303064460658827e-05
2,audio/left,0.11343572675413942,-2.1267769538705177e-05,-1.5316594952460115e-05,-1.4082595534095086e-05,-8.38765493746387e-06,-2.1834926290032942e-05,-1.3572677949966844e-05,-8.283263914877816e-06,-9.159208557764207e-06,-9.054651128509822e-06,-1.0723299352270784e-05
2,audio/left,0.12010239342080607,-1.671103565009444e-05,-1.5998927713170582e-05,-1.7061364798273425e-05,-1.0927942852715186e-05,-1.6138200560156973e-05,-1.0824867983011348e-05,-8.895438997045264e-06,-9.21618830465149e-06,-7.8229334697407e-06,-9.049782173778621e-06
2,audio/left,0.12676906008747274,-9.87731468014193e-06,-1.6689505044822897e-05,-2.1391760207271e-05,-1.2510604354102885e-05,-1.3132258898633183e-05,-6.7339357262867565e-06,-9.857455342048276e-06,-1.0750599342444932e-05,-9.40556773774011e-06,-9.765849093217988e-06
2,audio/left,0.1334357267541394,-7.253710668816858e-06,-1.5048742442195299e-05,-2.0403572728768153e-05,-1.2747957201365772e-05,-1.3992157661096868e-05,-6.877249916452049e-06,-1.1644438069869529e-05,-1.2643530018700469e-05,-1.2197459125066767e-05,-1.1966710529008307e-05
2,audio/left,0.14010239342080605,-8.294792288120807e-06,-1.2587410465078652e-05,-1.4202703898839685e-05,-1.0744904978254258e-05,-1.558050497236042e-05,-1.1411068751714238e-05,-1.3095365316634456e-05,-1.3318247185894888e-05,-1.3652950892871763e-05,-1.2842485564475684e-05
2,audio/left,0.14676906008747276,-9.986005801817521e-06,-1.1672906557612895e-05,-9.365359640940732e-06,-7.911225352593692e-06,-1.6322852946832867e-05,-1.4799914399377028e-05,-1.324498343277311e-05,-1.3163619718685784e-05,-1.3753180854687883e-05,-1.2612480689570305e-05
2,audio/left,0.1534357267541394,-1.2617900110309858e-05,-1.1979666475878807e-05,-8.687203769968308e-06,-6.650890557166348e-06,-1.7108786061329424e-05,-1.383869685353578e-05,-1.25849292525791e-05,-1.3548659173986645e-05,-1.4691217055492832e-05,-1.3919341227907604e-05
2,audio/left,0.16010239342080607,-1.470199268778577e-05,-1.1708947697586985e-05,-8.888552241280637e-06,-6.739250008163615e-06,-1.5943484953106375e-05,-1.0995021698044564e-05,-1.183747596164083e-05,-1.4164552593572013e-05,-1.644546241309276e-05,-1.6253172415537825e-05
2,audio/left,0.16676906008747272,-1.1732971698105909e-05,-1.0859671443006018e-05,-8.895088671914075e-06,-5.629290069839562e-06,-1.2755560424120924e-05,-1.0092145097964511e-05,-1.072341578343251e-05,-1.366852504377019e-05,-1.6664861645100144e-05,-1.6068419269574363e-05
2,audio/left,0.17343572675413937,-3.4089433635444765e-06,-1.0140795806146197e-05,-1.0897828770384349e-05,-4.3796667285537344e-06,-1.0824004250216854e-05,-1.0535381723686069e-05,-8.786310264506387e-06,-1.1725592613236787e-05,-1.4017993570154834e-05,-1.2593250961378185e-05
2,audio/left,0.18010239342080608,2.4935623777818507e-06,-9.35365510309417e-06,-1.4094668776267627e-05,-6.124033544771023e-06,-1.2462062280734759e-05,-1.0208030162265333e-05,-7.032236201532536e-06,-9.872505439345772e-06,-1.0970042259240129e-05,-9.598272798664272e-06
2,audio/left,0.18676906008747274,-2.012258294130669e-07,-8.331502974264772e-06,-1.4588236680702613e-05,-9.843359344264823e-06,-1.4615098908788001e-05,-1.0258423817936826e-05,-7.260445278202693e-06,-9.651157568173811e-06,-1.04190232243725e-05,-9.878710876461994e-06
2,audio/left,0.1934357267541394,-8.195244028202897e-06,-8.777871923767974e-06,-1.2411285085869408e-05,-1.0399564467032235e-05,-1.5828613498429374e-05,-1.3168483983150474e-05,-9.115180687864444e-06,-1.0668872199319127e-05,-1.1972030558201053e-05,-1.1680914097072554e-05
2,audio/left,0.20010239342080605,-1.3011710026659532e-05,-1.1659048049645615e-05,-1.0783322057976862e-05,-7.554122257054447e-06,-1.646016050527946e-05,-1.614854522231549e-05,-9.481939458683826e-06,-1.0514325432570377e-05,-1.209226907664018e-05,-1.179785442887627e-05
2,audio/left,0.2067690600874727,-1.2583175710700884e-05,-1.4728112189706093e-05,-1.0165859917800407e-05,-6.2672123184301774e-06,-1.5543728813809298e-05,-1.4199984306196673e-05,-6.5789266615737656e-06,-7.913163662265278e-06,-9.307749576788134e-06,-1.0015434039127153e-05
2,audio/left,0.2134357267541394,-1.2330553199143865e-05,-1.4885282202204595e-05,-8.959609158065173e-06,-8.09973459315832e-06,-1.1769370381004053e-05,-8.198531772916225e-06,-2.7807200204482677e-06,-4.4861777187199e-06,-5.7445539807636455e-06,-8.132644788065503e-06
2,audio/left,0.22010239342080606,-1.557146600139309e-05,-1.3089452178289237e-05,-9.034593317800762e-06,-8.26557740572578e-06,-1.0174255384744847e-05,-4.409975897499047e-06,-1.0520211413449296e-06,-2.554429566949059e-06,-4.027228267669519e-06,-6.610683178382774e-06
2,audio/left,0.22676906008747272,-1.6726752788972165e-05,-1.258302138460741e-05,-1.2490029861567784e-05,-5.3174462982979685e-06,-1.3875366824172392e-05,-4.627079690375671e-06,-7.599435028694412e-07,-1.8969244268147024e-06,-3.5885486169682516e-06,-4.548645420267932e-06
2,audio/left,0.23343572675413937,-1.098236598461205e-05,-1.367317945080393e-05,-1.5934843154901428e-05,-4.071815797655769e-06,-1.7278029588603367e-05,-5.402671375369221e-06,-1.6127328384642712e-07,-1.3770229458392252e-06,-3.0698645291889066e-06,-2.7725786414112657e-06
2,audio/left,0.24010239342080608,-3.9475315630255975e-06,-1.3538442680467866e-05,-1.4404406978778645e-05,-7.1545341783806015e-06,-1.4176727271795761e-05,-5.733313873283062e-06,-3.128505111233019e-07,-1.4419142055960692e-06,-2.641483273118741e-06,-3.349398098570498e-06
2,audio/left,0.24676906008747274,-3.77546423926116e-06,-1.1676606406644373e-05,-9.644175477622505e-06,-9.50803494669498e-06,-1.0155748881175837e-05,-8.416283276825298e-06,-2.4668664721925767e-06,-2.6344380065546873e-06,-2.993808476508777e-06,-5.666345575754046e-06
2,audio/left,0.2534357267541394,-6.5675695530882155e-06,-1.0199139163761161e-05,-6.931577942109851e-06,-7.042621238865614e-06,-1.0824191451627579e-05,-1.1773743987087492e-05,-4.150462472200654e-06,-2.935870161982068e-06,-2.8420406901653274e-06,-6.093388904912919e-06
2,audio/left,0.26010239342080604,-4.548965816750028e-06,-9.961408301803065e-06,-7.2749974728039545e-06,-2.6232456792630994e-06,-1.145445066972265e-05,-1.0324193575592745e-05,-2.5790466462774484e-06,-8.431470056412693e-07,-1.4909611757539399e-06,-3.522802227325914e-06
2,audio/left,0.2667690600874727,-2.6054289211783113e-06,-1.0261010278290194e-05,-8.216998961497064e-06,-1.4652749422749407e-06,-7.413558310952369e-06,-4.4707261201918675e-06,2.97198009400147e-07,1.3304297245779755e-06,-4.7009203566160734e-07,-1.3106949202455093e-06
2,audio/left,0.2734357267541394,-1.0395869409555655e-05,-1.2098629697390964e-05,-9.696243962988473e-06,-4.183185840162487e-06,-6.7996078578033575e-06,-2.450551904986096e-06,7.093550576426088e-07,6.068218109022082e-07,-1.3175600675691079e-06,-1.8505004564694897e-06
2,audio/left,0.28010239342080606,-2.004629590304636e-05,-1.541976954218016e-05,-1.181744089925122e-05,-8.423618329705624e-06,-1.3661313911015434e-05,-8.177639722031414e-06,-1.0721424953323666e-06,-1.4268865956930633e-06,-2.3795483628123145e-06,-2.7969317276555966e-06
2,audio/left,0.2867690600874727,-1.569448791816581e-05,-1.5782125958658707e-05,-1.1386447804625648e-05,-1.0896317018905483e-05,-1.7168192955906538e-05,-1.540885914154606e-05,-2.0738006211138683e-06,-1.2009788533191858e-06,-1.7133808432867326e-06,-1.746985367093078e-06
2,audio/left,0.29343572675413937,-2.1180895881953915e-06,-9.704402758334425e-06,-6.186792118492074e-06,-8.810254421341092e-06,-9.372894342221189e-06,-1.6244040926376192e-05,-1.4648061721501106e-06,1.4541759101683015e-06,3.333590297256129e-07,-1.0826960291177881e-07
2,audio/left,0.3001023934208061,-3.990836442708416e-08,-2.319268787059274e-06,-2.6127268094471675e-07,-2.6598074694251405e-06,-2.026943433200861e-06,-1.127403124490933e-05,-2.496516085896332e-07,3.886515946606912e-06,2.2481871515152285e-06,4.47577456128534e-07
2,audio/left,0.30676906008747273,-1.0319450765571453e-05,-1.154596310645434e-06,1.327677644080518e-06,1.4440466443834983e-06,-4.866732068166898e-06,-6.3992223725367046e-06,1.4490637215074632e-06,5.243521657878675e-06,4.035554948180183e-06,1.3371057103512295e-06
2,audio/left,0.3134357267541394,-1.1947916912299311e-05,-4.916738939793079e-06,-1.1311401897078926e-06,-5.567676283005885e-07,-8.879399139386636e-06,-4.9103342748186665e-06,3.3764483412852713e-06,6.144991298300784e-06,5.482436894505314e-06,3.2803644730870815e-06
2,audio/left,0.32010239342080604,1.6225380148611875e-06,-6.088409098901112e-06,-4.039262384177493e-06,-4.201349245564054e-06,-4.2477551460768385e-06,-5.08024542597895e-06,4.106124942187868e-06,6.332209221369439e-06,5.722507340223313e-06,3.9175235017652746e-06
2,audio/left,0.32676906008747275,1.0391388167882558e-05,-3.835406612832716e-06,-5.766242066552402e-06,-2.3040500493688854e-06,-4.0329980347287705e-07,-4.613271016345025e-06,3.6799315593599606e-06,5.473228155660234e-06,4.704947009347396e-06,1.9161753097374566e-06
2,audio/left,0.3334357267541394,1.912406169123296e-06,-4.0020340702359335e-06,-5.740828659721347e-06,3.452516848780543e-06,-6.184237108245289e-06,-2.9562496818463823e-06,4.286861542216021e-06,4.895076231331903e-06,3.876670257331084e-06,-4.990808242929374e-07
2,audio/left,0.34010239342080606,-9.565732266129517e-06,-7.886503147259178e-06,-3.7217713383890533e-06,5.433297086639096e-06,-1.3052290739386323e-05,-1.2627858447052912e-06,6.109277001789633e-06,5.162212110998984e-06,3.1810024602317166e-06,-1.7799552072211467e-06
2,audio/left,0.3467690600874727,-8.023993745961655e-06,-1.008151041496562e-05,-2.0429864142725183e-06,9.283710830172275e-07,-1.1354037713260124e-05,-9.68102508591901e-07,6.080085930341797e-06,4.749397006971923e-06,1.58035441729729e-06,-2.9372071412655317e-06
2,audio/left,0.35343572675413937,-5.782471634677628e-07,-8.937264635969127e-06,-4.673256031820812e-06,-5.0294351949176925e-06,-8.983416660435819e-06,-3.3347603832422343e-06,2.750628874267888e-06,2.56441892738367e-06,-7.576350188084704e-07,-4.12255564004373e-06
2,audio/left,0.3601023934208061,-2.1031694008228082e-06,-9.06229403073818e-06,-1.0657316426330159e-05,-7.995675467798093e-06,-1.3586316960867642e-05,-7.350273499422246e-06,-1.1594469652942625e-06,-1.657272656176781e-07,-2.5500319907833877e-06,-4.04975640399131e-06
2,audio/left,0.36676906008747273,-1.1055652690816577e-05,-1.2600499043906371e-05,-1.422680250087774e-05,-7.687633984157618e-06,-1.8612378468711087e-05,-1.0016483216682248e-05,-2.9367148450734684e-06,-2.4100223001366766e-06,-4.3307858690915376e-06,-3.85924979411133e-06
2,audio/left,0.3734357267541394,-1.348750916341259e-05,-1.5284777985665044e-05,-1.2728830952216189e-05,-6.11114456024904e-06,-1.702887843091337e-05,-9.739861645658767e-06,-3.2292341016218957e-06,-4.214511995781492e-06,-6.469477340270183e-06,-5.648918806619626e-06
2,audio/left,0.38010239342080604,-6.058214935756753e-06,-1.4198901453062277e-05,-1.0170312109902473e-05,-4.974331057882072e-06,-1.5080512518108641e-05,-9.776981157359986e-06,-3.808873415774692e-06,-5.078682854169195e-06,-7.2374097606264785e-06,-7.513844019199792e-06
2,audio/left,0.38676906008747275,-4.7578163400878695e-07,-1.1835233849850167e-05,-9.80872719052785e-06,-5.497093045280756e-06,-1.6540691439661285e-05,-1.3206239680929231e-05,-4.799299936251221e-06,-4.143687768639769e-06,-5.360364664935102e-06,-5.793068777562315e-06
2,audio/left,0.3934357267541394,-5.6836916644922e-06,-1.1061059106394686e-05,-9.531208402124497e-06,-6.454425666649405e-06,-1.5537143585820873e-05,-1.667189354308504e-05,-5.2388127791323705e-06,-2.592833192902477e-06,-3.5648700983179737e-06,-1.999053192730636e-06
2,audio/left,0.40010239342080606,-1.3595786704921554e-05,-1.0975742508498383e-05,-6.953937234276927e-06,-6.090987565429146e-06,-1.0013270123557974e-05,-1.3863080619516138e-05,-4.3721288166915045e-06,-1.8965437994048402e-06,-3.909045702908193e-06,-6.025010596746603e-07
2,audio/left,0.40676906008747277,-1.1835957346084068e-05,-1.0686723716496891e-05,-5.032919735426234e-06,-5.251463687126152e-06,-8.233964474308378e-06,-6.679748192594359e-06,-2.274754200739616e-06,-1.1245640424907243e-06,-4.013798710295305e-06,-1.2823208196738789e-06
2,audio/left,0.41343572675413937,-3.699916384465598e-06,-1.1245239081084426e-05,-7.152727571753973e-06,-6.6270502292323625e-06,-1.096234189565875e-05,-3.597184189386005e-06,-3.724181820892071e-07,9.749711968228666e-07,-1.3235900816955172e-06,6.17442682724158e-08
2,audio/left,0.4201023934208061,-3.6350970471937903e-06,-1.252733801252395e-05,-1.0767028574073392e-05,-8.811345174958065e-06,-9.843339170433801e-06,-6.556728384336137e-06,-3.004061952909624e-07,2.4113473890523466e-06,1.1869014617225737e-06,3.4537735742489095e-06
2,audio/left,0.4267690600874727,-1.1584987018471521e-05,-1.1854312073322044e-05,-1.0330492087477179e-05,-7.871668823856957e-06,-3.97470035692226e-06,-7.82398870778709e-06,-1.3676646996403107e-06,1.205819886891993e-06,3.219632781924169e-07,5.252298679986515e-06
2,audio/left,0.4334357267541394,-1.1444868113640805e-05,-8.779086911296267e-06,-6.008432770934184e-06,-3.7602133420167373e-06,-3.5806011799863536e-06,-4.414742333770722e-06,-1.3608078848129813e-06,-6.41746669468249e-07,-1.6460267894309535e-06,4.68583500824525e-06
2,audio/left,0.4401023934208061,1.1125630904893334e-06,-6.482393516404361e-06,-3.282764093556606e-06,-1.2193934631151637e-06,-9.841021893988981e-06,-3.142237118912762e-06,-3.3342679879696787e-07,-3.0491549671282283e-07,-1.0089333143892859e-06,3.834688203713373e-06
2,audio/left,0.4467690600874727,7.98425107441298e-06,-7.146959657418178e-06,-4.770811123015642e-06,-1.8670786881917133e-06,-1.3502636622293478e-05,-7.330365584381982e-06,-4.163257186629215e-07,7.024061476893237e-07,2.3296897858599502e-07,2.5809111822766107e-06
2,audio/left,0.4534357267541394,-1.6603832626174767e-06,-8.853549217757287e-06,-7.07282485526687e-06,-2.8987392887698023e-06,-1.1241684216883448e-05,-9.251950832914296e-06,-1.4730700042239542e-06,-3.243553292625809e-07,-1.325227753002665e-06,2.0747876323787868e-08
2,audio/left,0.4601023934208061,-1.2857223816278574e-05,-9.97635650393355e-06,-7.82328765541252e-06,-2.7358900408460476e-06,-1.0269463370097083e-05,-4.526937455266045e-06,-1.1484293236723964e-06,-2.2938040878157114e-06,-4.225479541975177e-06,-1.8411064794321968e-06
2,audio/left,0.4667690600874727,-9.211588518534497e-06,-1.1730257006654712e-05,-9.147343015137479e-06,-3.6315452678072405e-06,-1.206279835214643e-05,-7.915978432261655e-07,4.044725670091825e-07,-2.4895224380995475e-06,-4.867221932052681e-06,-1.2933779432802604e-06
2,audio/left,0.4734357267541394,1.199571362298616e-06,-1.4526985777274506e-05,-1.2280640001180513e-05,-5.8700693987869115e-06,-1.2182359533083123e-05,-4.38082951453634e-06,5.510476743863362e-07,-1.6399510587031844e-06,-4.4170137659071385e-06,-1.2275231990030515e-06
2,audio/left,0.480102393420806,2.6234261889858433e-06,-1.5222201197448187e-05,-1.3729711753237382e-05,-6.715434960638612e-06,-1.135816709059183e-05,-8.597875003615771e-06,-6.143643432143848e-07,-1.8444637011764186e-06,-5.744191605355146e-06,-4.274693923939597e-06
2,audio/left,0.4867690600874727,-3.897048714672384e-06,-1.2480096632605457e-05,-1.1632228272934312e-05,-4.711234709049096e-06,-1.530484832903913e-05,-6.595220201920746e-06,-2.4593544439021673e-07,-2.559484651411278e-06,-7.891113918435872e-06,-7.38353173397786e-06
2,audio/left,0.49343572675413944,-8.251302600005936e-06,-1.0225773758584545e-05,-9.860898811871248e-06,-2.0036970045449756e-06,-2.080948707486118e-05,-3.703034717994296e-06,1.6191414680277494e-06,-2.0874411083304404e-06,-7.791398617862863e-06,-6.635443355980692e-06
2,audio/left,0.5001023934208061,-1.0323156046605385e-05,-1.2358133950778696e-05,-1.2214154376304554e-05,-1.86550367174073e-07,-2.0809789463894997e-05,-7.187884696877116e-06,1.587061786345576e-06,-1.4406398430628317e-06,-6.452506534535691e-06,-4.3962194582932144e-06
3,visual/right,-0.09989760657919393,2.8912731493189596e-06,4.497133072968897e-06,6.843810719679974e-06,3.3913523477655063e-06,2.4336814525733703e-06,4.040828761526698e-06,4.858015933626072e-06,3.920689060747498e-06,3.874413819854075e-06,4.1168993056394496e-06
3,visual/right,-0.09323093991252726,1.1164318152397504e-05,5.432999862654916e-06,5.787379545027327e-06,3.1393163962265893e-06,2.3296707470543018e-06,3.437042099029785e-06,2.8168412498526398e-06,2.855033004963188e-06,3.857809650933753e-06,5.38686156763386e-06
3,visual/right,-0.08656427324586059,1.0171252868063045e-05,9.979023188847504e-07,1.7514063135236108e-06,-2.1494395696085114e-06,1.589663192752687e-06,-4.15641575023343e-07,-1.3132063185878364e-06,-4.4194630581562295e-07,1.1080141625779854e-06,1.773428750439589e-06
3,visual/right,-0.07989760657919392,8.65438698058462e-07,-1.8001062685567876e-06,-9.100151014408923e-08,-3.2895553887664418e-06,2.5926339508275746e-06,-1.0427026647339885e-06,-2.211710120842124e-06,-1.2242839304956178e-06,5.898936384892717e-08,-8.456774818898311e-08
3,visual/right,-0.07323093991252726,-3.7148456821026243e-06,1.6386577419182627e-06,1.2115465057451558e-07,3.6994882994815487e-06,4.55232128429602e-06,2.87111429188967e-06,1.781732223677677e-06,2.4119984165129218e-06,2.9625941091878795e-06,2.7572718797290735e-06
3,visual/right,-0.06656427324586059,2.2798567782355506e-06,6.6621365341624515e-06,-8.731282405271417e-08,9.900788492312145e-06,4.3573176170500965e-06,6.203570592697349e-06,5.7507840058746746e-06,5.7978026603535665e-06,5.167624497797944e-06,4.267133080309339e-06
3,visual/right,-0.05989760657919393,7.1144630486999745e-06,6.143097427579522e-06,-2.865487907553411e-07,7.324534181511431e-06,1.094023423110196e-06,5.6133570351682915e-06,5.164036323647614e-06,4.664262259414769e-06,2.799402958961732e-06,9.80039990359922e-07
3,visual/right,-0.05323093991252726,6.212425542208529e-07,9.387250923774146e-07,9.300219476293905e-07,2.1208258269437755e-06,-2.231242317207013e-06,3.3689903352206957e-06,1.930551353935574e-06,1.3306244619067362e-06,-7.250899831955704e-07,-1.659455478837102e-06
3,visual/right,-0.04656427324586059,-8.098486244595474e-06,-2.7689974702133354e-06,1.815075367214384e-06,2.651146632171545e-06,-2.2714113405804014e-06,1.5744698367299653e-06,2.676565419471334e-07,1.6713775924820344e-07,-7.427972153383842e-07,-4.7030305728238675e-07
3,visual/right,-0.03989760657919393,-6.1924970661669914e-06,-2.2260773945752473e-06,1.6704847811882616e-07,5.055197149201158e-06,6.328879788127604e-07,-1.1079089477101541e-07,4.6128302804645085e-07,8.455824800509113e-07,1.1876970642680902e-06,2.1058700413391212e-07
3,visual/right,-0.03323093991252726,6.558478147069648e-07,-7.845175725687048e-07,-2.9529742732169197e-06,4.910572905875788e-07,2.20352931451792e-06,-1.8994994979409369e-06,-4.0764021139228043e-07,2.582135725722072e-08,7.164675958773552e-07,-2.501488307193452e-06
3,visual/right,-0.026564273245860595,-5.056389706373072e-07,-1.617572393002088e-06,-4.525953137596553e-06,-8.020930287385e-06,-2.922663016011704e-07,-3.2112584728175598e-06,-3.1276522321382664e-06,-2.692614313696638e-06,-2.2490922452171224e-06,-4.666810428950532e-06
3,visual/right,-0.019897606579193927,-6.4482486998249145e-06,-3.988291843969543e-06,-3.6647385879438032e-06,-1.056920328912951e-05,-4.136597277269969e-06,-4.9893165529246565e-06,-5.4782431559171125e-06,-4.7392149898166595e-06,-4.5796598614058604e-06,-3.8264620582823355e-06
3,visual/right,-0.01323093991252726,-5.60468730353064e-06,-5.0621230950634e-06,-2.0384873787286057e-06,-6.328535476074472e-06,-5.039171306802218e-06,-7.000892378830023e-06,-5.509571580885037e-06,-4.950458806523007e-06,-5.065769222917393e-06,-2.477250852680708e-06
3,visual/right,-0.006564273245860591,-1.1141747562843496e-06,-4.435511095537969e-06,-1.6382402931189787e-06,-3.532338178109631e-06,-3.834548138543185e-06,-6.332346398096531e-06,-3.689952355096687e-06,-4.444079987095571e-06,-4.6802025843689825e-06,-2.2857886168898026e-06
3,visual/right,0.00010239342080607672,-4.085114340559033e-06,-3.627454917059141e-06,-2.130640226211026e-06,-3.883704427127708e-06,-3.980492278990967e-06,-2.106924517124392e-06,-1.292924685748495e-06,-3.5263531270118954e-06,-3.690402110864446e-06,-1.5200950299398349e-06
3,visual/right,0.006769060087472745,-1.0864487119383004e-05,-3.180462416731348e-06,-1.5045962086065884e-06,-1.8942277462089925e-06,-4.678511460623056e-06,1.1659650723414244e-06,1.0323467396156893e-06,-1.2043566878627962e-06,-1.6798581545827344e-06,-1.95223501421821e-07
3,visual/right,0.013435726754139399,-8.866803514934686e-06,-1.5544750651882871e-06,6.341211212651356e-07,2.4571175716086428e-06,-2.396332495351689e-06,1.0211923323870845e-06,2.987247731558929e-06,2.0631553376877697e-06,8.257266073285887e-07,3.2128493293456594e-07
3,visual/right,0.020102393420806067,1.164967999034661e-08,1.0922048409064155e-06,1.4904046293030348e-06,2.0680124150609755e-06,1.3246132758807514e-06,1.1897078711717604e-06,3.7010294897856785e-06,3.7583809936012954e-06,2.5322658006054027e-06,5.5335110016487e-07
3,visual/right,0.02676906008747275,3.2492967876444267e-06,2.433754818051805e-06,-1.2504293305932604e-07,-2.6449666090748485e-06,1.6059150251450317e-06,4.124250424740113e-06,2.7032846808698054e-06,2.6082161639526344e-06,2.500160034645947e-06,1.182789109327136e-06
3,visual/right,0.0334357267541394,3.5158706770089514e-07,1.576214322109555e-06,-7.56402600584502e-07,-2.443104078085448e-06,-1.2902234852927002e-06,5.4222147918704825e-06,1.05298859420783e-06,4.929400804796062e-07,7.946955606903981e-07,1.0091950636849871e-07
3,visual/right,0.040102393420806084,1.8865919325747405e-06,1.2294657555642313e-06,2.3261461881447345e-06,5.225939004138803e-06,-2.154406867333135e-06,2.898036343054573e-06,8.016886666567077e-07,1.0614971687429222e-07,-8.297681044900674e-07,-2.3001832387023953e-06
3,visual/right,0.04676906008747274,8.945360254205007e-06,2.8066847477044405e-06,5.2791177958852895e-06,1.0043993413425165e-05,1.778903255005092e-07,1.7133855229803684e-06,2.4256623337184648e-06,1.8210956534888613e-06,1.203230270457865e-07,-1.612573777226828e-06
3,visual/right,0.05343572675413939,1.1631483129008341e-05,4.183885454512416e-06,3.7047358870349474e-06,5.658550564648612e-06,1.8973220017037837e-06,4.70212438133635e-06,4.1385969191983e-06,3.957670088950945e-06,3.557119462989111e-06,2.6885457952907944e-06
3,visual/right,0.060102393420806074,5.9145997350441114e-06,3.0967076997657724e-06,2.2460996297894464e-07,-8.571799518200931e-07,1.263395221181696e-06,5.597999033758019e-06,3.895725133993367e-06,4.877053139147108e-06,5.791646042688386e-06,3.7321757756804236e-06
3,visual/right,0.06676906008747273,-1.9178476782462393e-06,3.8217974101246876e-07,-5.747147029629502e-07,-1.8916833031849794e-06,-2.3505604028972198e-08,4.857863421905751e-07,1.725136896982358e-06,3.903448654107118e-06,4.005415221951987e-06,-1.4868510629448833e-06
3,visual/right,0.07343572675413941,-6.151749321281352e-06,-3.0367296976107393e-06,-1.3410241747993998e-06,-2.1125654750425343e-06,-2.430952242142327e-06,-4.502367606398254e-06,-1.0061743218659994e-06,1.075426224420584e-06,-3.2940405366983446e-08,-6.697091655164155e-06
3,visual/right,0.08010239342080606,-6.808456955698678e-06,-6.692919641623256e-06,-6.5537715893213186e-06,-7.029233127418365e-06,-7.681149252625995e-06,-3.56056468057279e-06,-3.0660803275545754e-06,-2.4636394836062094e-06,-2.7930296499066103e-06,-6.688598237551209e-06
3,visual/right,0.08676906008747275,-6.518834701069571e-06,-8.879736178704688e-06,-1.2483353865734186e-05,-1.0977729343479396e-05,-1.3172554335401121e-05,-1.2549619069664514e-06,-3.827953117934129e-06,-4.62089686008698e-06,-3.4339200511653504e-06,-5.481285204049983e-06
3,visual/right,0.0934357267541394,-8.058690645426303e-06,-8.231938862862935e-06,-1.2088771112246108e-05,-6.913616564792201e-06,-1.3845122294586217e-05,-3.470001765811923e-06,-3.113780984935144e-06,-4.1821720269021345e-06,-3.0299523055885933e-06,-7.034480896189845e-06
3,visual/right,0.10010239342080608,-1.1795147940029916e-05,-7.674719744688102e-06,-7.373092377704174e-06,-1.5672574644719465e-06,-1.0220597322357111e-05,-7.74743095014979e-06,-1.8582015632000617e-06,-2.20924779024639e-06,-1.7412083064490962e-06,-7.980807562075134e-06
3,visual/right,0.10676906008747274,-1.3038532235827694e-05,-9.218504709964074e-06,-5.598694951316503e-06,-4.765447750167663e-06,-7.41354248713738e-06,-8.515028777305902e-06,-1.0675313653308035e-06,-2.6366116441859294e-07,6.878193970230168e-07,-4.543447866729801e-06
3,visual/right,0.11343572675413942,-7.285347719170213e-06,-8.731397877719383e-06,-6.805796989067141e-06,-1.1506632189824852e-05,-6.796643149307835e-06,-6.086674816171662e-06,-1.795941978627767e-07,1.72564439662923e-06,3.2695232843067047e-06,2.495209508262102e-08
3,visual/right,0.12010239342080607,1.9906281126413974e-06,-2.8526026613034113e-06,-5.515838802264042e-06,-8.711060865636336e-06,-4.90314114406865e-06,-3.735165850083838e-06,2.089305078121036e-06,4.273746201471499e-06,4.727984227759968e-06,1.5823803245207288e-06
3,visual/right,0.12676906008747274,6.592380325522771e-06,1.5310986823172735e-06,-2.836425027879424e-06,1.7409652884186518e-06,-1.6018901721179707e-06,-2.372376881794577e-06,4.737675077008732e-06,6.056997699185459e-06,4.8506846256662046e-06,7.525126925292972e-07
3,visual/right,0.1334357267541394,3.7939203655918417e-06,-2.7907777936801436e-06,-4.441252161736073e-06,5.389194322158481e-06,-1.4290358716611342e-06,-7.995464815520682e-07,5.531115969609155e-06,5.572167915918008e-06,4.193672583838162e-06,3.229476551291832e-09
3,visual/right,0.14010239342080605,-2.0679939431980686e-06,-9.464595733981446e-06,-8.62645992462636e-06,-1.6515146959730395e-06,-5.425960249349887e-06,1.3505515390092677e-06,4.598562181830384e-06,4.130363032385516e-06,3.7522921456759258e-06,-1.3376564880794047e-07
3,visual/right,0.14676906008747276,-5.227373634689736e-06,-6.67115437682513e-06,-7.41629711770687e-06,-6.960783432800647e-06,-7.87889748703655e-06,3.4936916340337594e-06,4.210376019799257e-06,4.349679099478447e-06,4.7335675158719364e-06,1.1866303544214925e-06
3,visual/right,0.1534357267541394,-2.284761666900773e-06,3.03222430338658e-06,-2.4777824980896534e-07,-3.1433820171458486e-06,-4.794822248928471e-06,3.910207913751573e-06,4.76992112501915e-06,6.173583490922837e-06,6.99823335865393e-06,4.302217298886251e-06
3,visual/right,0.16010239342080607,5.2250574203905045e-06,7.142805006447027e-06,4.711730176417756e-06,3.064751546211443e-06,8.78205737436193e-07,2.1431744991510484e-06,5.281177422198456e-06,7.823344211108251e-06,8.932325052101916e-06,7.0488391255776635e-06
3,visual/right,0.16676906008747272,1.0069757573256292e-05,3.5272048790209716e-06,3.4448922940987353e-06,5.125922806837207e-06,5.108142888079556e-06,9.92065150632738e-07,6.600184954369697e-06,9.705587365829849e-06,1.0364687976707586e-05,7.571555553786398e-06
3,visual/right,0.17343572675413937,7.668924042453172e-06,2.162843038227268e-06,1.7760677182626133e-06,6.709128473773064e-06,8.533178788065957e-06,3.4077673060984663e-06,1.0170753413450287e-05,1.3458944295856402e-05,1.3299011385769588e-05,8.680191872283524e-06
3,visual/right,0.18010239342080608,4.119428451460663e-06,6.587889854159378e-06,5.203858049026778e-06,1.0199213610400955e-05,1.2076962093580546e-05,6.97212224363439e-06,1.3985371215079242e-05,1.75877213067323e-05,1.7751335798986077e-05,1.2850161796477773e-05
3,visual/right,0.18676906008747274,7.321123529093259e-06,1.019693285519946e-05,1.0857036315264995e-05,1.082526833082834e-05,1.3286262443368725e-05,8.091092862726573e-06,1.5140598051642308e-05,1.875701192999052e-05,2.0287585314189305e-05,1.7114189417606246e-05
3,visual/right,0.1934357267541394,1.3045813683239539e-05,9.588335074819427e-06,1.2438211330051035e-05,6.546250407556471e-06,1.084954421410426e-05,8.027179990417749e-06,1.4549570277573225e-05,1.7042266055413852e-05,1.9071891929873327e-05,1.7199858628648954e-05
3,visual/right,0.20010239342080605,1.1712360601965205e-05,9.083706860732959e-06,9.553612412401047e-06,3.645070455613634e-06,8.110555034880383e-06,8.849007820922325e-06,1.4610525087823473e-05,1.5475688413452494e-05,1.6635547908547897e-05,1.4397596392392055e-05
3,visual/right,0.2067690600874727,4.851789840954694e-06,9.96818493513263e-06,7.406279561904596e-06,5.153139047733714e-06,7.489681040303832e-06,7.194711385375089e-06,1.408461956539873e-05,1.4650445997450665e-05,1.5146266314175167e-05,1.1971103548943577e-05
3,visual/right,0.2134357267541394,1.726205624763336e-06,8.52194180792261e-06,8.653580164126996e-06,6.264541207399919e-06,7.055908661310216e-06,1.961676978509339e-06,1.1273579801696111e-05,1.2744270980321768e-05,1.3401351404034422e-05,1.0120906413737935e-05
3,visual/right,0.22010239342080606,3.306538325916873e-06,4.056079913884413e-06,8.639072267178991e-06,3.791786042020581e-06,5.023173026222642e-06,-6.766064152717346e-08,8.63341783858712e-06,1.0128185648696718e-05,1.0798416719397708e-05,7.802726841907033e-06
3,visual/right,0.22676906008747272,2.9818271045968923e-06,3.7828210387357793e-07,2.3122707358995635e-06,1.4569912674755308e-06,2.411373979184072e-06,4.494674770956765e-06,8.570857602162234e-06,8.781369823699187e-06,9.20526268099259e-06,6.099076673052878e-06
3,visual/right,0.23343572675413937,-1.0401566187775095e-06,-2.126670690467412e-06,-6.839599480623481e-06,2.935048312274553e-07,-1.355908059207909e-06,6.846210877060072e-06,7.860796076955373e-06,7.478231652723107e-06,8.24361386919429e-06,4.5959640295703644e-06
3,visual/right,0.24010239342080608,-5.223621583114053e-06,-6.14689203996335e-06,-1.0094723589948398e-05,-3.969798347202508e-06,-7.83904474516679e-06,1.0603847415398398e-06,3.220206592231126e-06,3.2780634718771998e-06,4.342870277938473e-06,6.284841576836844e-07
3,visual/right,0.24676906008747274,-8.096521289422078e-06,-1.1114426504204059e-05,-6.721380011974964e-06,-1.1989138472583707e-05,-1.3789937670004433e-05,-4.554380952203806e-06,-2.11759674270685e-06,-2.5836068058477857e-06,-2.678392315146695e-06,-5.796614856072142e-06
3,visual/right,0.2534357267541394,-9.512016901758955e-06,-1.3186031222351241e-05,-5.438750244814756e-06,-1.6871253043985703e-05,-1.3811595714682897e-05,-2.638774746069801e-06,-3.573545899969186e-06,-5.667615122932655e-06,-7.5192850991009905e-06,-1.0163798051966502e-05
3,visual/right,0.26010239342080604,-8.897997127595429e-06,-1.231266151576784e-05,-1.0662841008530712e-05,-1.465514260258018e-05,-1.0370674571424968e-05,-9.901322683476556e-07,-3.0090002519404358e-06,-5.261089426644791e-06,-6.964874065041356e-06,-1.0268248606455159e-05
3,visual/right,0.2667690600874727,-8.956948664230546e-06,-1.1901716907472297e-05,-1.558928381508822e-05,-9.456333515471661e-06,-1.100547534258755e-05,-6.404365016545636e-06,-4.201141295217455e-06,-4.90844262842331e-06,-4.397548349056549e-06,-8.626122750815463e-06
3,visual/right,0.2734357267541394,-1.2970004945151264e-05,-1.331789102950279e-05,-1.4461427238020259e-05,-7.3330624103121214e-06,-1.5548250810958852e-05,-1.0100765001401712e-05,-5.6845655473857306e-06,-6.179957154039112e-06,-4.009686443930371e-06,-7.801759157738624e-06
3,visual/right,0.28010239342080606,-1.6575750815016052e-05,-1.4177641872902123e-05,-1.161627377761637e-05,-8.928184033684628e-06,-1.634160933446125e-05,-3.8132553645334316e-06,-4.338450975558619e-06,-6.824354508915404e-06,-5.148027902462874e-06,-7.241195132668579e-06
3,visual/right,0.2867690600874727,-1.3151342401215186e-05,-1.3003346717178867e-05,-1.2135886428033999e-05,-1.1217586423628296e-05,-1.2214085293326398e-05,2.911225449446279e-06,-2.0569646615170967e-06,-5.4548278752901675e-06,-5.090663589457101e-06,-6.7622062874636115e-06
3,visual/right,0.29343572675413937,-6.000497764924152e-06,-1.0534263505873296e-05,-1.2084474056142856e-05,-1.0639416262355996e-05,-9.69433302815484e-06,-1.036713056830238e-06,-1.908677273114672e-06,-3.297446098924632e-06,-3.2451449546036184e-06,-6.756311553152154e-06
3,visual/right,0.3001023934208061,-3.066842616118132e-06,-8.15550951696829e-06,-7.107901082628133e-06,-6.722600827230262e-06,-1.0008097410312089e-05,-9.188272009203353e-06,-2.278765353983978e-06,-1.1235819002032309e-06,-3.683215588271139e-07,-5.890831165124375e-06
3,visual/right,0.30676906008747273,-3.3267276594635446e-06,-6.316241273644356e-06,-1.8043793490465453e-06,-3.2974948161030674e-06,-6.931091751960515e-06,-9.303742501119468e-06,-2.2811717370241427e-07,1.5897578788202602e-06,2.988426622651017e-06,-2.3842056832303226e-06
3,visual/right,0.3134357267541394,-2.009130997313339e-06,-5.419877968089009e-06,-2.0461629762926253e-06,-5.09111877619516e-06,2.507257607358559e-09,-3.452733526055688e-06,2.658636887990476e-06,4.0286654003208535e-06,5.516751277016235e-06,1.505930535110703e-06
3,visual/right,0.32010239342080604,-2.026302971958997e-06,-5.011169768969421e-06,-4.412901077264889e-06,-9.507872344079455e-06,3.171068783970858e-06,-5.316645157427205e-07,3.4887002686898387e-06,4.491515258026287e-06,5.773445776797334e-06,2.3564995929449898e-06
3,visual/right,0.32676906008747275,-6.1520186929013525e-06,-3.994840837065616e-06,-2.8623356191553084e-06,-8.840291407308369e-06,1.890329822953623e-08,-3.71551400049179e-07,3.3102964984118483e-06,3.734476706181545e-06,4.8477390049858886e-06,9.175387208426972e-07
3,visual/right,0.3334357267541394,-7.226352934861734e-06,-1.833728936558776e-06,1.0022484667501478e-06,-1.2080425206360762e-06,-2.122503696660911e-06,2.5785731133239363e-06,5.043433459883103e-06,4.61225268179691e-06,5.59499085205957e-06,1.0143388788430307e-06
3,visual/right,0.34010239342080606,-7.113299565503911e-07,-1.3142655189235132e-07,2.1623592045033786e-06,5.527572544698968e-06,1.5694135297668933e-06,7.113104534650063e-06,8.250393248214964e-06,7.577608684649883e-06,8.296251543615286e-06,2.9325178935177886e-06
3,visual/right,0.3467690600874727,5.0086875302740764e-06,-2.1290785509240803e-08,1.6906604465399732e-06,5.854210760994979e-06,6.481808770591166e-06,8.801058635674491e-06,1.015457079652397e-05,9.714383375024117e-06,1.0023155044070515e-05,4.074172537479187e-06
3,visual/right,0.35343572675413937,3.924361885804536e-06,-1.503067288494776e-07,3.4107407091903423e-06,3.6475162407710196e-06,7.360290842509919e-06,7.838341113497154e-06,9.69844277880518e-06,9.090258139489738e-06,9.213033633666208e-06,4.0939814695835605e-06
3,visual/right,0.3601023934208061,3.652459757174346e-06,1.827932052486494e-06,6.4540597651866245e-06,4.478765466941225e-06,6.511000486265356e-06,6.689601671451687e-06,8.375393213793734e-06,7.493562944879798e-06,8.048876718138256e-06,5.4480401443155495e-06
3,visual/right,0.36676906008747273,8.879790325872986e-06,4.786957470217206e-06,7.429207342775564e-06,5.878268094584302e-06,7.986646886678489e-06,4.639929846342597e-06,7.494236052281128e-06,7.1933679528877e-06,8.667543078410776e-06,7.655140930242169e-06
3,visual/right,0.3734357267541394,1.0878215885337964e-05,5.481363261527975e-06,6.61928692973538e-06,3.050001038541299e-06,1.005578665912394e-05,1.1334346983755307e-06,6.876460875664651e-06,7.497767641738973e-06,9.669054187891413e-06,7.296459026944409e-06
3,visual/right,0.38010239342080604,5.184459839167425e-06,3.485377512094383e-06,5.954337643836873e-06,-2.317409833030148e-06,8.27429593833333e-06,-1.7465296886419498e-06,5.798837535035591e-06,6.668999254607231e-06,8.786532813830935e-06,3.6886266989614546e-06
3,visual/right,0.38676906008747275,1.5995861827593082e-06,2.7781639284515642e-06,5.489217057741129e-06,-3.4856279354585285e-06,3.7263678384630674e-06,-2.3073274481881535e-06,4.994790414084134e-06,5.7536795479376546e-06,7.309811754923126e-06,1.4884032899515483e-06
3,visual/right,0.3934357267541394,5.390729817638619e-06,5.541077840289827e-06,5.302350276373599e-06,1.5272771128658982e-06,2.297837996754818e-06,-1.5122630661292375e-06,6.318335598980612e-06,7.397828477643433e-06,8.56672642271661e-06,4.062108606161726e-06
3,visual/right,0.40010239342080606,7.522832885343273e-06,9.022026319375701e-06,7.066582576570083e-06,8.467438147436202e-06,6.356383251984149e-06,4.086220125246865e-08,1.009461771369652e-05,1.1448373497728992e-05,1.2567305128642659e-05,8.599077672496261e-06
3,visual/right,0.40676906008747277,3.0824305422337836e-06,9.47771421039938e-06,9.86480939606321e-06,1.2364557769031846e-05,1.1154603642707904e-05,2.0331274298730495e-06,1.335640289385122e-05,1.4424519621672147e-05,1.5399578133473877e-05,9.619170157519294e-06
3,visual/right,0.41343572675413937,9.82387708123024e-07,7.551242005092677e-06,9.953752256190629e-06,1.2256516111423932e-05,1.2075391747344125e-05,2.5509817496511676e-06,1.3001200806537681e-05,1.3877775238123675e-05,1.4557846516931518e-05,6.58741885196883e-06
3,visual/right,0.4201023934208061,6.504377081605631e-06,5.604036408418008e-06,6.662358640098266e-06,8.983863921008721e-06,1.0677280715523864e-05,-5.489084600319778e-07,9.573619142455871e-06,1.0919685667416052e-05,1.1847956509229076e-05,3.4311824895353305e-06
3,visual/right,0.4267690600874727,1.1692210922241874e-05,3.839997509449236e-06,4.073435801563324e-06,4.015215969671247e-06,1.0289279041395553e-05,-5.577962999225335e-06,6.464246848969335e-06,8.197014623326577e-06,1.0097602718459226e-05,2.9249604165967185e-06
3,visual/right,0.4334357267541394,9.964643250473328e-06,1.0899391168584886e-06,4.152880257010763e-06,-4.947666030891496e-07,9.054886838761276e-06,-8.736204600255248e-06,5.580612454131795e-06,7.140624403153115e-06,9.708169589028109e-06,4.030111472082521e-06
3,visual/right,0.4401023934208061,5.33813903606197e-06,-1.2362131362732358e-06,4.373723728945473e-06,-1.866068028007967e-06,3.951154921065621e-06,-8.060820634679343e-06,6.222209214608971e-06,7.594851617695411e-06,9.767259338438558e-06,5.435021395110912e-06
3,visual/right,0.4467690600874727,2.07608394296822e-06,-9.425036120728752e-07,3.3588367038171134e-06,-4.524102854400866e-07,-1.7879637763754327e-06,-4.695413113698057e-06,6.987400734842317e-06,8.325690585208055e-06,9.87722525241897e-06,6.460315916787973e-06
3,visual/right,0.4534357267541394,-1.3018501008824633e-06,1.4819702789114948e-06,3.6913974510791193e-06,9.911712063716508e-07,-1.8528271897255535e-06,-9.03393279980011e-07,7.278254639366098e-06,8.026929764028101e-06,9.606499194935638e-06,5.813743298084201e-06
3,visual/right,0.4601023934208061,-4.847865165103626e-06,2.805596321812958e-06,6.2671551030443364e-06,6.863004372201461e-07,3.5099066952773756e-06,3.718534135167321e-07,6.897771492816665e-06,6.936741702740947e-06,8.459521399207946e-06,2.530653205467418e-06
3,visual/right,0.4667690600874727,-5.078092533449492e-06,1.5402673812404702e-06,7.880758230359234e-06,-4.368091310753656e-08,8.317779098403225e-06,-2.4213247616540902e-06,6.101823232656748e-06,6.845013635563402e-06,7.471365238067872e-06,-4.60423792767732e-07
3,visual/right,0.4734357267541394,-2.133199171137673e-06,-1.082455503567376e-06,6.125395182234211e-06,-5.455792992770051e-07,9.279500139108661e-06,-7.140563741041219e-06,5.323249548938193e-06,8.128192846951652e-06,8.211123956010193e-06,4.1686158065421813e-07
3,visual/right,0.480102393420806,-3.485022016339262e-07,-3.097216497845958e-06,3.021514329036864e-06,-1.8460793637718213e-06,7.808602226541798e-06,-9.051293795436784e-06,4.705499498444723e-06,8.55094691431128e-06,9.551066840757315e-06,3.488449598297903e-06
3,visual/right,0.4867690600874727,-1.4430951638390998e-06,-4.236713251651879e-06,1.3902870019639318e-06,-4.6093923787807115e-06,4.958249362635102e-06,-6.841052658332372e-06,3.90746737333584e-06,6.54710034545112e-06,8.42278648973346e-06,3.0322326066509917e-06
3,visual/right,0.49343572675413944,-3.0955006677171873e-06,-4.817695900094928e-06,1.7563470866597103e-06,-7.133042484790978e-06,1.0263857618345286e-06,-4.017991708066863e-06,2.85138547259771e-06,3.818569974161992e-06,4.710934051030114e-06,-1.7310628472170999e-06
3,visual/right,0.5001023934208061,-3.844821176990155e-06,-5.020059296608256e-06,3.0302899692940657e-06,-8.035934493210602e-06,-2.0941937679931162e-06,-4.254856466830886e-06,1.5843431970988146e-06,2.546234690006527e-06,1.9570137849825316e-06,-5.557277587941226e-06
4,audio/right,-0.09989760657919393,2.3061399899151818e-06,-1.1365368684221635e-06,1.6244686944235288e-06,4.221242210746624e-06,-1.2524437002640051e-06,-3.3703579509661326e-06,4.567310886287998e-06,2.680315789847527e-06,1.9680358162546477e-06,4.019228002326783e-06
4,audio/right,-0.09323093991252726,-7.58921334589563e-07,-4.264976585162702e-07,-2.47595743480261e-06,8.164593552304893e-06,-9.386032918916957e-07,-1.0532711690929098e-06,5.16443094602772e-06,3.2594963826205153e-06,1.4702518526810191e-06,-1.0510323970814628e-07
4,audio/right,-0.08656427324586059,3.3862018641971273e-06,4.102033463152421e-06,-3.079575210556825e-06,4.78966855047366e-06,-1.0089959701094714e-06,3.402429841717983e-06,4.7285192460371e-06,2.3238886679859243e-06,5.859451684694025e-07,-4.426357995056469e-06
4,audio/right,-0.07989760657919392,7.073771499715772e-06,7.210172946145756e-06,2.338712507834499e-06,2.752781836176197e-06,-3.676276521142678e-06,4.951251345485177e-06,3.58791714537419e-06,1.5402892455384954e-06,8.425486099344891e-07,-3.124911684756339e-06
4,audio/right,-0.07323093991252726,5.350574644695345e-06,5.590776562961433e-06,7.240566561586803e-06,5.619384097229437e-06,-3.4715461121583195e-06,2.8164944309739985e-06,2.3944550914822713e-06,1.4904719410170117e-06,5.818367400127965e-07,-8.109928509770132e-07
4,audio/right,-0.06656427324586059,3.3456384683110898e-06,1.5665842392885008e-06,5.281826145895111e-06,5.380899559857701e-06,2.6142152604112656e-06,5.864769499015771e-07,9.438491949642908e-07,7.701134805859475e-07,-1.3004570172099665e-06,-3.150864676219993e-06
4,audio/right,-0.05989760657919393,3.798775975433809e-06,-7.269944960395729e-07,-5.008095040819556e-07,-1.9214504976980215e-07,7.347988543393813e-06,3.593521724698323e-07,-4.286218685795604e-07,-5.541851078542562e-07,-2.449010266108406e-06,-5.768208559696796e-06
4,audio/right,-0.05323093991252726,1.5118309029374717e-06,-1.77327052502568e-06,-3.2340705514218547e-06,-3.410369077818354e-06,4.029877837801222e-06,-3.6170472635355987e-07,-1.4832054503408297e-06,-1.394280880307494e-06,-1.6432138781195646e-06,-2.285540815856019e-06
4,audio/right,-0.04656427324586059,-4.963676348368123e-06,-4.186481528720594e-06,-3.280393379280758e-06,-2.844219654613269e-06,-2.5158315015679465e-06,-2.6779036212175788e-06,-2.758594037573968e-06,-1.7334280321046465e-06,-7.943914385384546e-07,3.647670949579639e-06
4,audio/right,-0.03989760657919393,-8.239644819479335e-06,-7.500262142235895e-06,-5.5162469544310835e-06,-5.565495731031702e-06,-5.253207100014948e-06,-4.47873411893352e-06,-4.546362773983574e-06,-2.6653943189329533e-06,-1.4508870447926161e-06,4.095976818671474e-06
4,audio/right,-0.03323093991252726,-3.4771194643035347e-06,-6.656219122939509e-06,-7.582066149105027e-06,-9.680497336631776e-06,-4.250715855876318e-06,-3.136741932897567e-06,-4.329551701551352e-06,-2.581366491672267e-06,-1.008464844954464e-06,1.0511617212179341e-06
4,audio/right,-0.026564273245860595,3.9187559963292e-06,2.2573803815254972e-07,-1.941358511172028e-06,-5.421966873352207e-06,-1.535443198303686e-06,4.7657120418994456e-07,-5.568799833645592e-07,3.126752935355322e-07,2.38899214746092e-06,2.5200978174381378e-06
4,audio/right,-0.019897606579193927,5.750353183821279e-06,7.302317596509788e-06,8.773520398744475e-06,4.739277282343297e-06,3.525366259684882e-06,3.602615381449112e-06,3.076443719539751e-06,3.50573949742736e-06,5.467646962108076e-06,7.507835202984521e-06
4,audio/right,-0.01323093991252726,3.513571085262247e-07,6.261421951746443e-06,1.114950662586444e-05,6.227857997508632e-06,7.20397060241681e-06,3.2287187569655345e-06,1.082589963001897e-06,1.9004401984361965e-06,3.2291389459368725e-06,6.441935839199996e-06
4,audio/right,-0.006564273245860591,-7.49571301921933e-06,-1.896699707721323e-06,7.627916455937843e-07,-3.5468903034048986e-06,3.4714558894888215e-06,-4.0482290217889525e-07,-4.617631458778111e-06,-3.28775570020775e-06,-2.587271436451977e-06,-2.039830611364912e-06
4,audio/right,0.00010239342080607672,-1.1858324647922608e-05,-7.956082748335915e-06,-9.5609148850905e-06,-1.1234121060018426e-05,-4.28981114186774e-06,-3.940373661513007e-06,-6.824668918543243e-06,-5.567019965915135e-06,-5.300700316682778e-06,-7.572095917782809e-06
4,audio/right,0.006769060087472745,-9.74531427930171e-06,-6.288280543753449e-06,-8.662652630107441e-06,-9.648225910881722e-06,-5.672153542145229e-06,-4.0379174359263395e-06,-3.836780604491535e-06,-2.9426571006389166e-06,-2.6282270546896125e-06,-3.893361213204635e-06
4,audio/right,0.013435726754139399,-2.9462235410818835e-06,-1.9175855201435823e-06,-2.386199890950744e-06,-6.80196200830342e-06,-9.69969900639781e-07,-2.7364258986928584e-06,-2.26489311526797e-06,-1.6633580042677458e-06,-6.185347936056402e-07,1.5944762223272534e-06
4,audio/right,0.020102393420806067,2.9282335678214107e-06,-9.486105988672392e-07,-1.054535187316352e-06,-8.834707957942184e-06,-4.2101323042509174e-07,-4.112247262708476e-06,-5.656278517345581e-06,-5.325454535338739e-06,-3.8063372522087592e-06,4.5649630271377277e-07
4,audio/right,0.02676906008747275,2.8582843769035884e-06,-2.5711367733598934e-06,-2.9574562772572115e-06,-1.1265212755837898e-05,-5.807324909569595e-06,-8.628672946004545e-06,-9.399103881276754e-06,-9.184238159253073e-06,-8.221865953920935e-06,-4.301051317328776e-06
4,audio/right,0.0334357267541394,-2.4994842860373723e-06,-2.6253686853738813e-06,-1.6745783409109312e-06,-1.0148514755402476e-05,-7.910987270284395e-06,-1.1886979727891864e-05,-8.933983076761964e-06,-8.084671299026916e-06,-7.529533012634015e-06,-5.020368692210198e-06
4,audio/right,0.040102393420806084,-7.096994319029138e-06,-2.0425723600339527e-06,-2.3434997216349942e-07,-9.151097079119421e-06,-5.01342492204779e-06,-1.1139982435607717e-05,-7.2143761860626395e-06,-5.583181424929024e-06,-3.875110162440086e-06,-2.6761218394543512e-06
4,audio/right,0.04676906008747274,-7.1445167170420445e-06,-4.00123340900726e-06,-5.37393155564972e-06,-1.0614785221961407e-05,-5.488374677404793e-06,-7.2158707731373265e-06,-8.005787152634925e-06,-7.088470227655061e-06,-3.894046151762862e-06,-3.3701593620637127e-06
4,audio/right,0.05343572675413939,-6.852010835253849e-06,-8.120052837477076e-06,-1.3810977336284068e-05,-1.0899936269224068e-05,-1.0826254398855314e-05,-3.1859983966212743e-06,-9.313586737559617e-06,-1.054096604231925e-05,-7.511992626887383e-06,-6.298921111361664e-06
4,audio/right,0.060102393420806074,-1.1290812573896587e-05,-9.938060257776188e-06,-1.6005734545415453e-05,-7.22447180594348e-06,-1.1151025376457077e-05,-1.3230159321193983e-06,-7.235342166613921e-06,-9.181816169242061e-06,-7.270595967908296e-06,-4.555333640292066e-06
4,audio/right,0.06676906008747273,-1.5513192913397122e-05,-7.45777307323255e-06,-1.0230938959176992e-05,-3.168399478125073e-06,-2.9049533365991393e-06,-2.9433358652511984e-06,-3.4147484190976414e-06,-3.2325448363151432e-06,-1.406258659651193e-06,1.7688076040846308e-06
4,audio/right,0.07343572675413941,-1.0725591257561084e-05,-3.3867608254879223e-06,-4.071388798122548e-06,-3.899133211399044e-06,3.878015195493036e-06,-6.688851733571594e-06,-2.4159288536206706e-06,-8.390903035925642e-08,2.1782447351365e-06,3.866615881458984e-06
4,audio/right,0.08010239342080606,-1.1020947138930927e-06,-3.060436478154065e-06,-3.83806361265354e-06,-9.984392735212559e-06,-5.839243471689534e-07,-1.0275731145432957e-05,-5.569576133830998e-06,-4.374562532610338e-06,-2.97894490273977e-06,-2.6930088671490024e-06
4,audio/right,0.08676906008747275,-1.415806888618017e-07,-7.5385762639704474e-06,-8.509022674990408e-06,-1.569525644566496e-05,-1.235787998792067e-05,-1.1629717147366072e-05,-9.254728845855261e-06,-1.1054955364925313e-05,-1.1361788603451306e-05,-1.0476978964521607e-05
4,audio/right,0.0934357267541394,-7.721550493046378e-06,-1.1219478292343594e-05,-1.2421416155330989e-05,-1.441979559324564e-05,-1.9178780462562855e-05,-9.614588376957647e-06,-9.418178342061974e-06,-1.2282625019864376e-05,-1.3123640987084372e-05,-1.0994058579233348e-05
4,audio/right,0.10010239342080608,-8.266580340163538e-06,-7.197657821407642e-06,-1.0843124166883157e-05,-6.642596905126792e-06,-1.3775564825615037e-05,-3.194282257061909e-06,-5.158308380781352e-06,-6.680834967190122e-06,-6.876597518065059e-06,-5.9071589942958424e-06
4,audio/right,0.10676906008747274,2.5881626535502195e-06,1.9940353569680026e-06,-4.639046677112819e-06,-1.1537996457968341e-06,-1.8183108993910699e-06,4.741367599357902e-06,-1.8992005374836491e-07,-8.340783406478718e-07,-8.060649279460631e-07,-2.909991568196317e-06
4,audio/right,0.11343572675413942,9.29279272082224e-06,6.904069396190175e-06,8.870575252751454e-08,-3.188445719065149e-06,4.6891008513490025e-06,8.617797887805138e-06,1.4414163125378991e-06,1.7527360604197388e-07,-5.138077742584498e-07,-4.029557941603653e-06
4,audio/right,0.12010239342080607,3.012179595594957e-06,4.3185988984650055e-06,-8.21169695364976e-08,-6.308903629000398e-06,2.0957625111254722e-06,6.760100321485907e-06,6.014628442419638e-07,-1.0031039099464453e-06,-2.6649591278350842e-06,-4.639972278388081e-06
4,audio/right,0.12676906008747274,-3.461282086911707e-06,2.619379981392593e-06,-4.4623236231740573e-07,-2.213296272145313e-06,3.9663782012262974e-07,4.936705026235059e-06,2.4305650189037444e-06,2.019810553436462e-06,-3.5962723045738234e-07,-9.96906947127213e-07
4,audio/right,0.1334357267541394,1.369572396635681e-06,7.334640199121767e-06,4.48328311508272e-06,4.906373074976811e-06,7.138571772619973e-06,6.213273147262403e-06,7.284748093822455e-06,8.827421949524137e-06,6.866100303858511e-06,5.449450780032766e-06
4,audio/right,0.14010239342080605,9.464707080648789e-06,1.2215838599285735e-05,1.1100602134806163e-05,4.526042350615299e-06,1.4601823501071252e-05,6.177727372415886e-06,8.966143500423777e-06,1.250958927687022e-05,1.3037863926586705e-05,1.127522565018713e-05
4,audio/right,0.14676906008747276,9.875189786261249e-06,9.405826102978578e-06,1.1431550274715684e-05,-3.5146153250986406e-06,1.2207212344370798e-05,1.9419997150025777e-06,4.418182011492129e-06,9.605190149938113e-06,1.328202869574952e-05,1.4216576490701678e-05
4,audio/right,0.1534357267541394,5.551105206049e-06,2.8486580196607075e-06,5.37201716866073e-06,-8.536284092651965e-06,5.123098466127735e-06,4.302025576698366e-07,3.8810428476046577e-07,5.837265503059832e-06,9.89750105215811e-06,1.3937913881209595e-05
4,audio/right,0.16010239342080607,2.475807021773331e-06,5.033298011256352e-07,1.5372468376270782e-07,-5.70938212512068e-06,4.492767796227249e-06,6.250477413607945e-06,2.6886275242760754e-06,6.372829496856626e-06,7.396943067012605e-06,1.0836988191037189e-05
4,audio/right,0.16676906008747272,-1.1465827696865446e-06,1.859149463160168e-06,-1.2166568855074908e-06,-1.8956386090765678e-06,7.181690152146628e-06,1.1844828182702027e-05,6.277715956787584e-06,7.700046717896281e-06,5.727050020339049e-06,5.3802790023866585e-06
4,audio/right,0.17343572675413937,-6.005664456439639e-06,2.7185106880401283e-07,-2.572934784215066e-06,-3.7895193644923487e-06,1.5281002951378713e-06,8.214405058322163e-06,3.1777606164810586e-06,3.591947853628562e-06,1.1740248263651908e-06,-1.6937472562956766e-06
4,audio/right,0.18010239342080608,-7.837312092300902e-06,-4.592254895106149e-06,-5.971213845882198e-06,-8.102556400531475e-06,-9.740948960115845e-06,8.480853501127036e-07,-3.209939290552132e-06,-2.8422495027689067e-06,-4.745161945222036e-06,-7.073587192252477e-06
4,audio/right,0.18676906008747274,-7.917300289844625e-06,-7.933343163908543e-06,-8.494193184164914e-06,-8.98147193730096e-06,-1.2392412913490244e-05,1.1256086558738454e-07,-3.599646673029944e-06,-3.2773818772681185e-06,-5.279916756534494e-06,-6.031989296220904e-06
4,audio/right,0.1934357267541394,-1.1469181344915741e-05,-8.086246937041312e-06,-8.810248265714995e-06,-8.244445174839886e-06,-4.145708421259038e-06,4.720437169954231e-06,1.7260377365254676e-06,2.7004522872117583e-06,1.438689230435998e-06,1.667971804127141e-06
4,audio/right,0.20010239342080605,-1.4347228188099635e-05,-8.06748334253576e-06,-9.838144575579064e-06,-1.2045079367872931e-05,1.100124230045488e-06,5.76826884788453e-06,3.1243902087428006e-06,5.609201245919241e-06,6.5116040769883795e-06,8.138575859552155e-06
4,audio/right,0.2067690600874727,-8.912190532763407e-06,-8.476258437031276e-06,-1.3007275793290985e-05,-1.8154912499611888e-05,-4.315676170515262e-06,4.320917003916184e-06,-1.6847788158334803e-06,8.026451070501405e-07,1.9686117380467987e-06,5.25627355094685e-06
4,audio/right,0.2134357267541394,-1.227956609071261e-06,-7.463053879384496e-06,-1.5111299702088049e-05,-1.6391691399136117e-05,-1.165392846065522e-05,7.463265152716867e-06,-4.2574570721175915e-06,-4.942120954028314e-06,-7.49206677581227e-06,-4.94981689775152e-06
4,audio/right,0.22010239342080606,-2.430530843784295e-06,-4.2959740874031374e-06,-1.2847651583683096e-05,-4.6287832901663935e-06,-1.0685614053446484e-05,1.2984401924635558e-05,4.230121872516741e-07,-3.563651818803002e-06,-9.867798766866553e-06,-1.1405715990124997e-05
4,audio/right,0.22676906008747272,-7.158337319600359e-06,-7.383860514893787e-07,-6.6703551227913085e-06,3.6833819272637508e-06,-3.8678288750326644e-06,1.1133948708346147e-05,5.852310795824456e-06,2.635611095354845e-06,-2.369248361987878e-06,-6.861992919719573e-06
4,audio/right,0.23343572675413937,-2.6091975958446394e-06,2.3276674556953463e-06,6.067330449343332e-07,-1.8065882806558674e-06,1.2759660259878675e-06,2.936662601049534e-06,5.822365908107775e-06,6.723626688824449e-06,6.596891318011269e-06,4.584656102211397e-06
4,audio/right,0.24010239342080608,6.5619685074897835e-06,4.458851376656363e-06,5.850513061117255e-06,-1.0801165091514814e-05,3.6651420127595605e-06,-7.54225436494097e-07,3.6635386290513713e-06,7.163095446062453e-06,9.52093886486142e-06,1.2791407543517407e-05
4,audio/right,0.24676906008747274,6.299119503883552e-06,5.516853769215678e-06,6.367553629880565e-06,-6.693464608767474e-06,6.913475706037988e-06,3.842951558462167e-06,5.454102057450247e-06,7.775288042067976e-06,8.179321579678431e-06,1.2731948136865454e-05
4,audio/right,0.2534357267541394,-4.218517052323502e-07,5.364580420562436e-06,2.2690306583780975e-06,6.1331329826705166e-06,1.0040497887617933e-05,8.591828494774755e-06,9.732014961419183e-06,9.487221296687449e-06,7.330106947847101e-06,8.336560826328523e-06
4,audio/right,0.26010239342080604,-2.729194787365789e-07,4.424853328724782e-06,-2.4618502752850323e-06,8.521896378914002e-06,8.754905947515929e-06,8.416025715727066e-06,1.1286839668505953e-05,1.0119999365656394e-05,8.11914817350716e-06,6.723144659257858e-06
4,audio/right,0.2667690600874727,4.008079120627593e-06,1.8799800345968393e-06,-4.52077489508846e-06,-2.9081676301064945e-06,3.2093306636584214e-06,5.7609020328419244e-06,8.67610600525507e-06,8.474393355418449e-06,8.375812558529756e-06,9.095196874937546e-06
4,audio/right,0.2734357267541394,-4.3404814784629587e-07,-2.1598433174430816e-06,-5.493090807265466e-06,-1.107632872368416e-05,-8.118105167665786e-07,2.634017894769115e-06,4.586749721084142e-06,5.761235192330402e-06,7.09768596745e-06,1.037318900477806e-05
4,audio/right,0.28010239342080606,-1.0530661532672634e-05,-5.354585970559843e-06,-7.618797228492319e-06,-7.011088452366369e-06,-4.2193794193700714e-07,-1.8370762155933751e-06,1.2953229035920488e-06,2.747425786502934e-06,4.822827632955225e-06,7.442557847766098e-06
4,audio/right,0.2867690600874727,-1.216313676779977e-05,-4.645164903176479e-06,-8.207956375680491e-06,-1.4801582630651141e-06,1.4422981991927365e-06,-3.80742523518103e-06,5.017320230431076e-07,6.541559034636631e-07,3.0630722941447495e-06,4.110548624218937e-06
4,audio/right,0.29343572675413937,-5.211334521098371e-06,-1.1426520777696207e-06,-4.014243451377689e-06,-4.032236928907768e-06,1.4437328404496798e-06,4.990016647498066e-07,2.4381028985534845e-06,6.86325037478372e-07,2.295592607527752e-06,3.749969679670401e-06
4,audio/right,0.3001023934208061,-7.680132349307029e-07,1.4307920237892895e-06,1.1413407798489002e-06,-8.567115254037574e-06,1.6101821629281954e-07,6.1829782110455905e-06,4.601485842244775e-06,2.136378818332105e-06,1.659524890107385e-06,3.0162644426924518e-06
4,audio/right,0.30676906008747273,-1.0565878813585827e-07,5.235444006292297e-07,4.4501183690077266e-07,-7.586736615606824e-06,-1.3705409990864169e-06,5.421298229163861e-06,3.915577450778846e-06,2.1877949678736536e-06,5.1760560940558674e-08,-1.8469301643804112e-06
4,audio/right,0.3134357267541394,2.4765515294103713e-06,-2.5893464884029382e-06,-5.432902793464236e-06,-3.849808009190118e-06,-2.421582043429587e-06,1.8027753050957778e-06,2.167680788995679e-06,1.2221384475958474e-06,-7.872775394991834e-07,-6.2747513197555176e-06
4,audio/right,0.32010239342080604,3.843112507423298e-06,-5.075972904254333e-06,-9.099048910814591e-06,-2.062343265214361e-06,-7.581651468914306e-07,3.6701765297857424e-06,3.178012490757615e-06,2.231683787223766e-06,1.2306425347487225e-06,-3.886421232261516e-06
4,audio/right,0.32676906008747275,-9.810525562433594e-07,-3.815160587831919e-06,-7.087639537008755e-06,-1.0845232295127843e-06,4.577752383021417e-06,9.339389213746085e-06,6.357682876831828e-06,5.304389948732847e-06,4.480219666021253e-06,2.250143753683245e-06
4,audio/right,0.3334357267541394,-4.8107179004713515e-06,1.294430362686489e-06,-2.6789320275535e-06,-9.904415761289209e-08,7.819016699737678e-06,1.0254708847003762e-05,7.301031232993144e-06,5.972499338315096e-06,4.220605782423374e-06,2.841892772125911e-06
4,audio/right,0.34010239342080606,4.023429440130014e-07,6.574615808584652e-06,1.0399055639734382e-06,-5.819572886906759e-07,3.344309366031149e-06,7.6713011201503e-06,5.583579157836937e-06,2.8014208804790064e-06,-2.761748009736225e-07,-3.799312943849982e-06
4,audio/right,0.3467690600874727,7.747175314288118e-06,7.576530553923748e-06,3.869797068116679e-06,-8.788408565334062e-07,-4.2617467965015826e-06,9.15400591674518e-06,4.399422354261915e-06,-6.254346131945889e-07,-4.817475592162974e-06,-1.0009739037888826e-05
4,audio/right,0.35343572675413937,7.3661282561939296e-06,5.5947362665183656e-06,4.8292850246123925e-06,1.913879401420709e-06,-5.368543453587125e-06,1.4231426406837814e-05,4.5899414218996685e-06,-1.2486942672551804e-06,-5.614724696628749e-06,-9.50551178048953e-06
4,audio/right,0.3601023934208061,3.6243364451922614e-06,5.022745404955717e-06,2.714840546759827e-06,4.034769765977562e-06,-4.2278318854344067e-07,1.5220811968809162e-05,3.918229458322286e-06,-6.040712624518331e-07,-3.5079957988826307e-06,-4.070123345977332e-06
4,audio/right,0.36676906008747273,4.9301820412078545e-06,6.494587908325007e-06,-3.3973673565994355e-07,2.809670490432794e-07,2.30184846546197e-06,1.2222346859590506e-05,3.0002542094353763e-06,8.909891697268796e-08,-7.674330978579982e-07,9.033611201331003e-07
4,audio/right,0.3734357267541394,7.701560029646771e-06,5.860920969805895e-06,-1.6177822159334413e-06,-5.553316898224332e-06,8.910733079102064e-07,1.1613654910931793e-05,4.310333325276056e-06,1.5703186608349947e-06,9.362727962908028e-07,1.6234734504934533e-06
4,audio/right,0.38010239342080604,5.2074703528277745e-06,2.7898286167594493e-06,-2.517578296716014e-06,-5.166598627812585e-06,8.398881800614621e-07,1.4442206309626819e-05,7.197838285496132e-06,3.6356460850339577e-06,8.748063354162365e-07,-1.8531201778401012e-06
4,audio/right,0.38676906008747275,1.3974506139465124e-06,1.3994073665174943e-06,-4.937103984447556e-06,6.721653327110657e-07,2.386099780529271e-06,1.519239030386074e-05,8.075683420944454e-06,3.874356104523116e-06,-7.302950781039053e-07,-5.7908431945660445e-06
4,audio/right,0.3934357267541394,2.450190107852674e-06,3.1278157511970165e-06,-6.137287424732401e-06,4.248895203602836e-06,9.713847194197788e-07,1.2428297090861894e-05,6.572401586328578e-06,2.5944961113924218e-06,-1.3804513079309458e-06,-5.587561265591137e-06
4,audio/right,0.40010239342080606,4.780250860851487e-06,3.7360619623318328e-06,-3.2291753827968032e-06,3.0149708718272037e-06,-2.1679949016811562e-06,8.94814775483143e-06,5.282227945048914e-06,2.476655501285405e-06,5.243282679044084e-07,-1.3144889709210224e-06
4,audio/right,0.40676906008747277,3.148870701850574e-06,1.9023699309739064e-06,7.197431400451116e-07,6.518851734595069e-07,-9.497350767212354e-07,6.655486740566965e-06,5.3632027889945515e-06,4.2049614719148075e-06,3.4553311874600248e-06,2.545110747348827e-06
4,audio/right,0.41343572675413937,8.123857074830044e-07,1.36074695444789e-06,1.461956805139483e-06,-1.86780321241436e-06,3.6614631376669288e-06,5.714091438414357e-06,5.099084601125664e-06,4.890004160734055e-06,4.360581255299845e-06,2.9828752288721494e-06
4,audio/right,0.4201023934208061,1.7602839198839777e-06,3.9675536450516404e-06,3.2255026975461997e-07,-5.679393097933164e-06,5.040045413152189e-06,7.583446562846251e-06,3.905649725225065e-06,3.52537083686834e-06,3.0955645360553817e-06,1.471210398570955e-06
4,audio/right,0.4267690600874727,2.3952088860010916e-06,5.2001285302709035e-06,-1.8998170162357071e-07,-8.182239312266737e-06,1.4836009143126735e-06,1.0956320996255792e-05,2.9028920445999184e-06,2.0220717271678693e-06,1.3049768735974014e-06,-3.945869664523037e-07
4,audio/right,0.4334357267541394,-8.468517083799756e-07,2.0168906969806213e-06,-2.7932511243115283e-06,-6.18921105457498e-06,-2.7571876851124755e-06,1.1583486076828548e-05,2.7206984866828143e-06,1.6958154886341263e-06,-1.9230830279419703e-07,-3.2151482606928e-06
4,audio/right,0.4401023934208061,-4.68587298267215e-06,-3.1478147838857183e-06,-9.88595480649488e-06,-3.5789555667529627e-06,-5.956792636284774e-06,7.565230464089771e-06,1.7151305679012633e-06,5.222636216900146e-07,-2.2908557368873567e-06,-7.21121762614463e-06
4,audio/right,0.4467690600874727,-5.8686140745435165e-06,-6.460755265378087e-06,-1.6022799095341262e-05,-6.1350201848455744e-06,-8.571978839901213e-06,2.885985311263577e-06,-1.2129545709320164e-06,-2.5505558443118243e-06,-4.658782303781804e-06,-9.916452219042301e-06
4,audio/right,0.4534357267541394,-5.787830564784999e-06,-7.259813837230872e-06,-1.3954567889264543e-05,-1.1428216187933908e-05,-8.519329360169704e-06,9.76526174941019e-07,-4.370039173452248e-06,-5.0933648909625756e-06,-5.365477685127787e-06,-8.774208478018768e-06
4,audio/right,0.4601023934208061,-4.175879455142243e-06,-4.721142224422646e-06,-5.256336218213924e-06,-1.136178692590575e-05,-3.1415656068692605e-06,2.0659886534054438e-06,-4.006746669189404e-06,-3.409660750976263e-06,-2.3835894027710564e-06,-3.6909042920121575e-06
4,audio/right,0.4667690600874727,1.817833327811196e-06,1.42657313252911e-06,2.378900023689865e-06,-4.845875352388715e-06,4.888123738372582e-06,4.917406294978085e-06,4.6860311139447384e-07,1.877858912938642e-06,3.0244715746640434e-06,2.3882842620113087e-06
4,audio/right,0.4734357267541394,9.19551910788619e-06,7.981871214994487e-06,5.61693538508575e-06,1.0215262812833827e-06,1.035910817241694e-05,8.530196930756927e-06,5.21498598993037e-06,6.6248359540529805e-06,7.124500963995803e-06,5.864829295119136e-06
4,audio/right,0.480102393420806,1.0407486979287537e-05,1.0236226728057236e-05,6.647645619013947e-06,1.7616464516883966e-06,1.1017532953252464e-05,1.0119282411710353e-05,6.651026204084629e-06,7.977150790267268e-06,7.518345206682989e-06,5.8098725955095385e-06
4,audio/right,0.4867690600874727,5.931199933399673e-06,9.665657511653356e-06,6.591028772453485e-06,1.014194883510684e-06,8.792839529714615e-06,9.121233015238577e-06,6.868463278466444e-06,8.15932955207607e-06,6.8814466831641795e-06,5.444928764613321e-06
4,audio/right,0.49343572675413944,4.736990938278531e-06,1.065592313694321e-05,4.661420798144742e-06,2.8519996188992975e-06,6.739132465345512e-06,9.084634340822921e-06,9.415613339488622e-06,1.0109801129159896e-05,8.743860038022176e-06,7.344869062624727e-06
4,audio/right,0.5001023934208061,9.65988858720676e-06,1.2510149919704516e-05,2.1030612472923174e-06,5.978277919487712e-06,7.1477085653807276e-06,1.3098795379032169e-05,1.3137321287595703e-05,1.3137999479976931e-05,1.21080206243385e-05,9.205345554866428e-06
5,visual/left,-0.09989760657919393,6.584038126328128e-06,3.423437458946489e-06,5.445629403768717e-06,6.804879168208573e-06,3.2966822606094992e-06,5.588250258614633e-06,6.0907202308766705e-06,5.1501535025819205e-06,1.7892902254566579e-06,-5.285832072444813e-07
